
Integration time [ms]:  40.000
Averaging Nr. [scans]: 20
Smoothing Nr. [pixels]: 0
Data measured with spectrometer [name]: 1304102U1
Wave   ;Sample   ;Dark     ;Reference;Reflectance
[nm]   ;[counts] ;[counts] ;[counts] ;[%]

 199.93;  366.250;  251.800;  471.850;52.01090
 200.27;  377.200;  279.450;  482.600;48.11716
 200.62;  382.100;  272.500;  496.800;48.86314
 200.96;  383.950;  253.550;  500.450;52.81491
 201.31;  363.200;  252.650;  460.700;53.13627
 201.65;  428.150;  292.850;  503.750;64.15362
 201.99;  408.300;  296.250;  519.850;50.11181
 202.34;  400.700;  276.850;  511.450;52.79199
 202.68;  356.950;  263.750;  471.850;44.78617
 203.03;  387.600;  273.450;  493.400;51.89816
 203.37;  384.200;  271.450;  480.350;53.97319
 203.72;  423.000;  282.550;  518.550;59.51272
 204.06;  393.150;  273.100;  497.400;53.52207
 204.40;  413.400;  289.350;  520.950;53.56217
 204.75;  419.150;  296.050;  512.450;56.88539
 205.09;  394.000;  269.850;  506.100;52.55026
 205.44;  398.850;  264.100;  480.650;62.22582
 205.78;  380.100;  271.100;  485.300;50.88703
 206.13;  396.900;  276.400;  503.250;53.11880
 206.47;  404.450;  285.050;  523.550;50.06290
 206.82;  371.850;  248.500;  486.550;51.81685
 207.16;  418.350;  292.550;  523.350;54.50608
 207.50;  387.800;  259.350;  491.450;55.34252
 207.85;  372.850;  279.250;  487.550;44.93520
 208.19;  400.150;  263.200;  502.600;57.20551
 208.54;  392.300;  269.150;  494.600;54.62408
 208.88;  372.000;  254.100;  504.500;47.08466
 209.22;  384.650;  267.250;  514.850;47.41519
 209.57;  389.450;  251.400;  501.000;55.30850
 209.91;  426.100;  297.700;  531.950;54.81323
 210.26;  391.400;  286.900;  498.600;49.36230
 210.60;  378.600;  260.200;  503.850;48.59429
 210.95;  379.700;  259.300;  489.600;52.27964
 211.29;  389.450;  262.900;  505.900;52.07820
 211.63;  370.150;  250.450;  486.400;50.73109
 211.98;  401.900;  259.000;  520.400;54.66717
 212.32;  368.050;  263.500;  493.100;45.53571
 212.67;  394.250;  257.050;  507.700;54.73768
 213.01;  381.650;  260.550;  516.700;47.27698
 213.36;  407.250;  269.250;  524.250;54.11765
 213.70;  397.000;  284.050;  516.550;48.58065
 214.04;  393.900;  279.650;  534.600;44.81271
 214.39;  391.650;  259.400;  529.850;48.89998
 214.73;  413.650;  258.950;  537.800;55.47785
 215.08;  414.950;  279.900;  545.300;50.88546
 215.42;  375.100;  246.950;  525.700;45.97309
 215.76;  398.400;  270.050;  560.850;44.13687
 216.11;  378.900;  237.400;  517.150;50.58087
 216.45;  370.550;  254.950;  518.850;43.80447
 216.80;  422.400;  269.250;  542.550;56.03732
 217.14;  399.750;  264.350;  541.500;48.85441
 217.48;  403.900;  258.400;  560.250;48.20275
 217.83;  385.450;  253.050;  535.550;46.86726
 218.17;  447.650;  292.500;  598.850;50.64469
 218.52;  381.200;  238.700;  549.750;45.81257
 218.86;  378.650;  247.100;  555.100;42.71104
 219.20;  413.650;  268.650;  557.050;50.27739
 219.55;  379.100;  263.300;  546.700;40.86098
 219.89;  431.500;  275.700;  570.500;52.84939
 220.24;  381.100;  267.300;  553.900;39.70691
 220.58;  391.350;  269.450;  545.700;44.12669
 220.92;  396.500;  265.250;  525.250;50.48077
 221.27;  409.350;  280.400;  533.050;51.03899
 221.61;  418.750;  271.700;  548.800;53.06748
 221.96;  387.700;  256.450;  532.900;47.47694
 222.30;  438.750;  279.200;  579.250;53.17447
 222.64;  414.650;  280.250;  596.500;42.49802
 222.99;  401.750;  278.950;  601.950;38.01857
 223.33;  411.750;  274.400;  635.350;38.05237
 223.68;  411.350;  274.300;  655.450;35.95697
 224.02;  431.750;  269.700;  655.950;41.95469
 224.36;  413.400;  242.700;  652.700;41.63414
 224.71;  394.450;  246.650;  642.250;37.36097
 225.05;  423.650;  270.150;  712.800;34.67751
 225.40;  449.350;  290.600;  731.900;35.97326
 225.74;  430.600;  273.550;  724.250;34.84580
 226.08;  440.000;  276.500;  735.200;35.64421
 226.43;  471.600;  286.850;  773.750;37.94414
 226.77;  457.000;  282.850;  769.600;35.77812
 227.11;  445.700;  268.400;  753.550;36.54540
 227.46;  457.450;  294.000;  800.000;32.30237
 227.80;  432.050;  263.650;  778.150;32.73080
 228.15;  445.450;  246.050;  779.600;37.37232
 228.49;  425.600;  238.750;  808.050;32.82101
 228.83;  447.450;  265.200;  814.350;33.18766
 229.18;  453.000;  264.350;  844.800;32.50065
 229.52;  447.800;  263.200;  834.450;32.31509
 229.86;  456.800;  256.300;  836.300;34.56897
 230.21;  457.500;  254.450;  873.400;32.80556
 230.55;  483.850;  276.700;  906.950;32.86791
 230.90;  472.500;  257.300;  895.600;33.71456
 231.24;  476.800;  266.450;  902.450;33.07390
 231.58;  500.400;  289.850;  935.900;32.59035
 231.93;  485.950;  256.700;  897.650;35.76722
 232.27;  507.000;  274.750;  943.100;34.74976
 232.61;  501.300;  291.550;  941.450;32.27419
 232.96;  484.150;  249.300;  923.600;34.82871
 233.30;  524.450;  310.600;  979.700;31.96084
 233.65;  509.050;  262.650;  928.600;36.99977
 233.99;  495.550;  269.750;  935.350;33.92428
 234.33;  482.900;  245.200;  929.450;34.73876
 234.68;  488.400;  267.300;  935.850;33.07157
 235.02;  496.650;  266.350;  919.650;35.25180
 235.36;  479.150;  234.400;  926.750;35.35062
 235.71;  483.750;  256.550;  927.450;33.86496
 236.05;  518.750;  277.450;  961.550;35.27262
 236.39;  510.900;  266.250;  928.800;36.92551
 236.74;  512.850;  276.600;  905.700;37.55364
 237.08;  478.800;  231.950;  897.400;37.09520
 237.43;  501.150;  243.600;  886.550;40.05755
 237.77;  498.500;  245.700;  877.300;40.02533
 238.11;  482.550;  261.500;  867.800;36.45885
 238.46;  513.600;  266.700;  866.400;41.17058
 238.80;  505.000;  268.700;  868.750;39.38005
 239.14;  537.850;  290.950;  870.750;42.58364
 239.49;  487.050;  258.600;  835.450;39.60301
 239.83;  492.500;  252.600;  814.450;42.69823
 240.17;  518.100;  288.000;  829.950;42.45779
 240.52;  490.200;  255.100;  805.350;42.72604
 240.86;  501.750;  296.950;  778.600;42.52050
 241.20;  472.750;  269.900;  756.050;41.72581
 241.55;  498.200;  290.350;  785.150;42.00687
 241.89;  485.250;  256.800;  731.850;48.08968
 242.24;  475.150;  273.150;  743.550;42.94218
 242.58;  462.900;  260.600;  713.800;44.63813
 242.92;  454.550;  256.700;  732.900;41.54766
 243.27;  465.950;  267.450;  701.600;45.72153
 243.61;  499.900;  273.200;  716.600;51.12765
 243.95;  442.250;  256.750;  677.350;44.10366
 244.30;  466.700;  257.750;  701.750;47.06081
 244.64;  464.150;  277.700;  691.550;45.05255
 244.98;  476.150;  255.550;  684.050;51.48191
 245.33;  471.650;  271.700;  707.900;45.83906
 245.67;  489.250;  296.150;  705.600;47.16083
 246.01;  459.950;  263.800;  670.450;48.23559
 246.36;  460.600;  268.700;  683.450;46.26884
 246.70;  458.700;  246.750;  688.950;47.93080
 247.04;  435.450;  247.700;  675.350;43.90273
 247.39;  469.400;  266.300;  718.100;44.95352
 247.73;  450.050;  254.850;  689.700;44.88904
 248.07;  472.750;  263.500;  714.900;46.35578
 248.42;  486.550;  262.150;  709.350;50.17889
 248.76;  472.650;  260.800;  698.700;48.37862
 249.10;  485.300;  273.250;  717.300;47.75363
 249.45;  481.200;  248.750;  737.450;47.56497
 249.79;  523.500;  297.950;  790.900;45.75514
 250.13;  491.800;  259.150;  756.050;46.82029
 250.48;  513.900;  281.400;  807.450;44.19732
 250.82;  518.800;  269.200;  809.050;46.23506
 251.16;  517.600;  268.000;  820.000;45.21739
 251.51;  531.700;  276.150;  834.750;45.74830
 251.85;  528.350;  256.000;  849.950;45.85402
 252.19;  549.450;  265.400;  896.350;45.01942
 252.54;  553.700;  261.200;  908.100;45.21565
 252.88;  586.450;  271.350;  971.950;44.97574
 253.22;  606.100;  274.250; 1003.450;45.50877
 253.57;  624.700;  288.750; 1037.000;44.89810
 253.91;  608.150;  256.900; 1075.650;42.90077
 254.25;  625.950;  264.500; 1077.950;44.43420
 254.59;  626.300;  246.600; 1120.500;43.44891
 254.94;  662.200;  249.800; 1185.550;44.07160
 255.28;  674.350;  269.700; 1221.850;42.49855
 255.62;  704.300;  280.500; 1295.850;41.73930
 255.97;  749.650;  274.750; 1375.150;43.15704
 256.31;  734.500;  255.850; 1403.100;41.72151
 256.65;  754.150;  265.450; 1433.100;41.85330
 257.00;  783.150;  248.200; 1513.300;42.28520
 257.34;  807.750;  250.450; 1542.900;43.11966
 257.68;  814.500;  246.700; 1584.550;42.44123
 258.03;  878.900;  262.350; 1674.100;43.67275
 258.37;  885.800;  244.050; 1732.650;43.11098
 258.71;  941.400;  283.250; 1814.550;42.97982
 259.06;  941.700;  244.450; 1839.600;43.71062
 259.40;  961.850;  256.700; 1895.100;43.03894
 259.74; 1010.350;  297.700; 1983.950;42.26242
 260.08; 1035.400;  276.550; 2041.950;42.98460
 260.43; 1061.000;  268.050; 2059.700;44.25809
 260.77; 1033.850;  258.250; 2077.600;42.63061
 261.11; 1114.000;  268.950; 2213.200;43.46406
 261.46; 1092.100;  238.850; 2219.700;43.07494
 261.80; 1119.450;  262.450; 2240.500;43.32549
 262.14; 1156.700;  264.750; 2298.900;43.84878
 262.49; 1149.250;  239.100; 2326.000;43.61254
 262.83; 1211.300;  264.100; 2434.100;43.64977
 263.17; 1219.500;  284.900; 2472.850;42.71578
 263.51; 1210.550;  270.450; 2458.000;42.97502
 263.86; 1214.050;  252.850; 2479.150;43.17478
 264.20; 1214.050;  264.750; 2481.250;42.82879
 264.54; 1292.800;  292.350; 2535.650;44.59725
 264.89; 1276.050;  269.800; 2608.700;43.02236
 265.23; 1223.150;  253.050; 2508.050;43.01996
 265.57; 1253.850;  255.050; 2547.900;43.56151
 265.91; 1264.650;  276.700; 2558.950;43.28842
 266.26; 1275.400;  276.950; 2594.900;43.07470
 266.60; 1292.600;  268.400; 2609.900;43.74119
 266.94; 1281.150;  267.050; 2592.650;43.60595
 267.29; 1278.150;  266.650; 2623.300;42.92110
 267.63; 1267.300;  267.500; 2599.350;42.87583
 267.97; 1277.250;  258.650; 2609.000;43.33823
 268.31; 1280.100;  265.950; 2618.450;43.10946
 268.66; 1265.100;  242.900; 2620.450;42.99384
 269.00; 1313.100;  274.300; 2649.900;43.72790
 269.34; 1307.700;  255.700; 2690.100;43.21393
 269.69; 1310.400;  264.700; 2666.600;43.53637
 270.03; 1306.250;  256.350; 2667.700;43.53993
 270.37; 1357.250;  301.750; 2800.100;42.24788
 270.71; 1333.700;  253.350; 2726.650;43.68051
 271.06; 1377.000;  268.450; 2819.200;43.45977
 271.40; 1330.850;  253.750; 2765.050;42.89013
 271.74; 1363.650;  277.850; 2805.600;42.95520
 272.09; 1371.850;  270.300; 2788.650;43.74094
 272.43; 1370.000;  266.050; 2817.750;43.26331
 272.77; 1363.200;  267.700; 2819.200;42.93553
 273.11; 1390.550;  264.800; 2828.350;43.91371
 273.46; 1352.500;  256.200; 2813.250;42.87362
 273.80; 1403.650;  307.300; 2872.550;42.73852
 274.14; 1381.850;  253.150; 2838.900;43.65078
 274.48; 1401.300;  291.750; 2863.000;43.15217
 274.83; 1385.050;  266.100; 2840.000;43.47294
 275.17; 1416.200;  250.400; 2910.650;43.82295
 275.51; 1389.200;  227.600; 2862.950;44.07764
 275.86; 1431.850;  250.000; 2929.750;44.10299
 276.20; 1441.200;  288.500; 2942.600;43.43091
 276.54; 1429.050;  265.550; 2945.300;43.41823
 276.88; 1409.000;  252.650; 2956.250;42.77075
 277.23; 1443.500;  274.600; 3000.150;42.88676
 277.57; 1445.450;  270.750; 2979.700;43.36366
 277.91; 1427.850;  250.950; 2977.100;43.17077
 278.25; 1415.300;  220.450; 2979.650;43.30422
 278.60; 1441.850;  270.800; 2972.500;43.34493
 278.94; 1441.500;  249.200; 2964.450;43.91124
 279.28; 1431.050;  269.000; 2983.150;42.81451
 279.62; 1414.150;  247.550; 2933.550;43.43261
 279.97; 1448.250;  279.200; 2971.200;43.42682
 280.31; 1410.450;  246.650; 2927.900;43.40513
 280.65; 1405.600;  237.800; 2916.000;43.60391
 280.99; 1427.000;  270.450; 2971.800;42.81378
 281.34; 1415.650;  252.400; 2939.750;43.28614
 281.68; 1441.900;  276.550; 2954.750;43.51243
 282.02; 1440.800;  276.450; 2981.550;43.04277
 282.36; 1411.300;  251.900; 2927.650;43.32991
 282.71; 1469.850;  282.050; 3002.550;43.66109
 283.05; 1422.400;  261.450; 2975.250;42.77950
 283.39; 1441.700;  265.900; 2963.050;43.59416
 283.73; 1416.500;  242.800; 2959.850;43.19758
 284.08; 1502.150;  283.850; 3047.650;44.08062
 284.42; 1433.850;  263.250; 2987.900;42.96332
 284.76; 1448.700;  259.600; 3024.350;43.00931
 285.10; 1427.700;  261.700; 2999.000;42.59672
 285.45; 1443.850;  246.600; 3033.750;42.95607
 285.79; 1449.800;  278.050; 3044.800;42.35114
 286.13; 1445.500;  261.750; 3025.500;42.83130
 286.47; 1465.050;  269.450; 3053.250;42.94849
 286.82; 1497.050;  270.250; 3076.100;43.72294
 287.16; 1449.900;  253.150; 3077.350;42.37483
 287.50; 1413.950;  243.900; 3006.950;42.34632
 287.84; 1436.700;  243.750; 3056.650;42.40997
 288.18; 1464.750;  255.450; 3073.450;42.91341
 288.53; 1471.550;  270.350; 3048.500;43.23741
 288.87; 1467.900;  262.450; 3081.850;42.75555
 289.21; 1445.500;  257.050; 3081.450;42.07796
 289.55; 1462.800;  281.100; 3090.050;42.06910
 289.90; 1473.650;  295.000; 3092.800;42.12774
 290.24; 1468.750;  279.200; 3141.000;41.56650
 290.58; 1473.400;  290.900; 3120.000;41.79775
 290.92; 1484.200;  279.100; 3140.200;42.12016
 291.27; 1505.050;  292.950; 3174.000;42.07147
 291.61; 1450.850;  250.000; 3095.100;42.20765
 291.95; 1460.450;  265.850; 3132.450;41.67306
 292.29; 1468.400;  281.800; 3155.200;41.29603
 292.63; 1435.350;  250.250; 3095.850;41.64675
 292.98; 1439.500;  245.450; 3149.250;41.12026
 293.32; 1498.300;  288.850; 3213.650;41.35155
 293.66; 1481.100;  257.750; 3146.500;42.34877
 294.00; 1465.200;  279.750; 3151.400;41.28114
 294.35; 1468.650;  286.800; 3157.200;41.17371
 294.69; 1454.400;  256.000; 3143.050;41.50950
 295.03; 1472.500;  262.750; 3129.800;42.19494
 295.37; 1429.050;  267.900; 3096.550;41.04962
 295.71; 1424.850;  274.900; 3060.200;41.28640
 296.06; 1366.600;  249.750; 2977.450;40.94475
 296.40; 1412.700;  309.600; 3008.500;40.87221
 296.74; 1369.250;  265.700; 2962.300;40.92375
 297.08; 1361.050;  245.850; 2953.250;41.19081
 297.43; 1341.650;  255.750; 2964.850;40.08342
 297.77; 1372.650;  263.150; 3012.850;40.34986
 298.11; 1374.400;  254.600; 3025.750;40.40922
 298.45; 1381.650;  270.300; 3071.300;39.67690
 298.79; 1425.400;  267.750; 3105.100;40.80039
 299.14; 1445.350;  288.600; 3167.700;40.17749
 299.48; 1400.750;  242.650; 3118.150;40.27474
 299.82; 1432.750;  266.550; 3153.700;40.39278
 300.16; 1430.300;  259.450; 3182.850;40.05097
 300.50; 1411.050;  240.000; 3197.500;39.59594
 300.85; 1401.700;  243.350; 3182.950;39.40502
 301.19; 1430.350;  261.500; 3233.150;39.33337
 301.53; 1428.100;  262.900; 3247.950;39.03452
 301.87; 1429.550;  261.850; 3212.450;39.57500
 302.21; 1454.700;  259.850; 3315.050;39.10873
 302.56; 1441.000;  262.000; 3241.800;39.56641
 302.90; 1412.900;  252.500; 3253.850;38.66260
 303.24; 1424.550;  262.600; 3271.650;38.61518
 303.58; 1404.800;  243.400; 3258.950;38.51371
 303.92; 1444.850;  260.200; 3283.350;39.18595
 304.27; 1381.300;  249.500; 3184.700;38.55956
 304.61; 1374.350;  256.800; 3127.400;38.93089
 304.95; 1350.750;  264.450; 3105.050;38.24192
 305.29; 1309.800;  270.250; 2984.950;38.29337
 305.63; 1306.550;  263.850; 2981.200;38.37195
 305.98; 1311.300;  271.950; 3061.250;37.26204
 306.32; 1355.550;  266.500; 3100.050;38.43412
 306.66; 1405.750;  292.300; 3232.250;37.87309
 307.00; 1385.300;  253.950; 3250.250;37.75824
 307.34; 1411.450;  252.400; 3318.600;37.80086
 307.68; 1455.150;  277.950; 3403.150;37.66799
 308.03; 1402.400;  248.450; 3324.850;37.50975
 308.37; 1452.550;  286.400; 3405.750;37.38439
 308.71; 1436.350;  265.950; 3362.400;37.79812
 309.05; 1419.150;  278.900; 3394.650;36.59633
 309.39; 1461.850;  284.100; 3447.400;37.23169
 309.74; 1432.850;  265.950; 3384.600;37.41683
 310.08; 1448.700;  265.300; 3350.250;38.36043
 310.42; 1477.450;  299.350; 3446.500;37.43387
 310.76; 1431.850;  239.650; 3431.600;37.35021
 311.10; 1424.200;  273.500; 3418.150;36.59231
 311.44; 1468.550;  273.800; 3445.300;37.67145
 311.79; 1423.650;  238.700; 3399.150;37.49308
 312.13; 1612.750;  407.000; 3580.450;37.99493
 312.47; 1468.700;  257.750; 3458.000;37.83923
 312.81; 1461.900;  263.050; 3449.150;37.62751
 313.15; 1433.800;  248.850; 3387.800;37.74989
 313.49; 1479.850;  266.400; 3484.600;37.70586
 313.84; 1478.050;  273.950; 3454.100;37.86299
 314.18; 1455.500;  246.350; 3398.850;38.35527
 314.52; 1498.400;  263.700; 3430.000;38.99504
 314.86; 1502.200;  257.700; 3437.750;39.13460
 315.20; 1498.500;  292.950; 3435.900;38.35728
 315.54; 1510.900;  263.600; 3440.300;39.26402
 315.89; 1493.100;  271.600; 3438.350;38.57267
 316.23; 1484.400;  258.000; 3415.350;38.84270
 316.57; 1492.050;  274.450; 3411.900;38.80859
 316.91; 1508.200;  281.600; 3400.050;39.33364
 317.25; 1499.800;  245.700; 3424.300;39.45448
 317.59; 1523.550;  265.400; 3415.600;39.93873
 317.94; 1508.800;  260.850; 3363.200;40.22596
 318.28; 1513.200;  247.200; 3397.600;40.18537
 318.62; 1534.300;  250.100; 3465.200;39.94277
 318.96; 1547.300;  263.150; 3448.600;40.31299
 319.30; 1545.800;  261.150; 3500.850;39.65336
 319.64; 1591.950;  274.900; 3544.200;40.28538
 319.99; 1594.250;  258.550; 3543.000;40.66739
 320.33; 1635.850;  262.850; 3632.800;40.74244
 320.67; 1630.850;  263.450; 3638.150;40.51916
 321.01; 1627.050;  262.050; 3612.700;40.73837
 321.35; 1668.450;  261.700; 3650.150;41.51603
 321.69; 1647.500;  253.500; 3653.250;41.00301
 322.03; 1656.150;  248.700; 3625.600;41.67876
 322.38; 1655.050;  269.850; 3599.750;41.59885
 322.72; 1628.000;  249.500; 3614.350;40.96765
 323.06; 1684.500;  277.300; 3635.800;41.89966
 323.40; 1639.900;  267.800; 3581.100;41.41189
 323.74; 1642.800;  259.650; 3573.350;41.74035
 324.08; 1639.750;  268.050; 3546.200;41.84372
 324.42; 1665.700;  299.400; 3561.300;41.88663
 324.77; 1601.100;  242.600; 3487.450;41.86634
 325.11; 1639.000;  274.650; 3455.600;42.89127
 325.45; 1565.100;  258.550; 3346.950;42.30508
 325.79; 1591.700;  259.000; 3363.200;42.93216
 326.13; 1624.050;  275.400; 3345.400;43.92997
 326.47; 1621.900;  278.300; 3340.900;43.87122
 326.81; 1596.600;  240.150; 3386.950;43.10569
 327.16; 1641.850;  258.500; 3426.900;43.66084
 327.50; 1686.050;  253.300; 3518.800;43.87536
 327.84; 1716.650;  277.400; 3541.050;44.09940
 328.18; 1763.200;  265.050; 3611.650;44.76633
 328.52; 1818.200;  273.700; 3647.400;45.78060
 328.86; 1798.700;  267.650; 3626.550;45.58188
 329.20; 1818.250;  279.750; 3606.500;46.24634
 329.54; 1828.700;  251.350; 3654.200;46.35379
 329.89; 1860.200;  244.750; 3616.700;47.90848
 330.23; 1864.200;  256.800; 3655.100;47.30012
 330.57; 1910.550;  288.300; 3633.800;48.49051
 330.91; 1916.550;  260.450; 3618.250;49.32099
 331.25; 1934.800;  283.550; 3604.600;49.72072
 331.59; 1918.750;  246.850; 3592.800;49.96787
 331.93; 1964.700;  248.700; 3628.900;50.76623
 332.27; 1958.100;  245.550; 3616.000;50.81072
 332.62; 2020.850;  245.400; 3645.200;52.22219
 332.96; 1977.600;  243.350; 3575.950;52.03895
 333.30; 2034.700;  255.500; 3596.350;53.25590
 333.64; 2120.550;  259.650; 3627.800;55.24992
 333.98; 2097.800;  257.150; 3585.350;55.30467
 334.32; 2153.300;  260.450; 3625.450;56.25112
 334.66; 2176.400;  254.200; 3612.700;57.23388
 335.00; 2196.150;  246.300; 3583.800;58.42247
 335.34; 2220.650;  258.950; 3610.500;58.53112
 335.69; 2288.550;  267.150; 3611.450;60.44314
 336.03; 2268.250;  254.700; 3573.500;60.67103
 336.37; 2357.050;  280.750; 3609.900;62.36727
 336.71; 2363.650;  278.200; 3562.950;63.48885
 337.05; 2397.900;  248.150; 3549.400;65.11927
 337.39; 2382.400;  274.000; 3501.750;65.32104
 337.73; 2418.650;  244.350; 3527.500;66.22603
 338.07; 2434.650;  264.350; 3510.900;66.84942
 338.41; 2517.150;  268.300; 3550.650;68.51341
 338.76; 2518.300;  274.750; 3463.800;70.35167
 339.10; 2487.200;  250.950; 3490.500;69.02965
 339.44; 2541.450;  264.350; 3502.650;70.31776
 339.78; 2524.300;  265.700; 3477.200;70.32851
 340.12; 2482.200;  243.050; 3397.800;70.97710
 340.46; 2550.700;  292.650; 3423.650;72.11913
 340.80; 2553.500;  250.150; 3381.750;73.55186
 341.14; 2535.100;  279.450; 3356.400;73.30799
 341.48; 2515.500;  269.000; 3283.900;74.51325
 341.82; 2518.800;  254.350; 3285.400;74.70844
 342.17; 2494.550;  288.950; 3257.500;74.29890
 342.51; 2540.650;  282.750; 3294.850;74.96098
 342.85; 2511.350;  253.400; 3247.550;75.41206
 343.19; 2569.050;  292.350; 3298.650;75.73097
 343.53; 2611.100;  236.600; 3331.600;76.72052
 343.87; 2558.100;  264.200; 3271.000;76.29041
 344.21; 2564.700;  271.050; 3268.100;76.53025
 344.55; 2610.950;  262.350; 3389.500;75.10353
 344.89; 2664.050;  252.550; 3394.850;76.74315
 345.23; 2659.100;  273.750; 3366.350;77.13089
 345.57; 2678.350;  276.900; 3408.300;76.68934
 345.92; 2661.550;  273.100; 3384.800;76.75708
 346.26; 2665.450;  283.400; 3389.200;76.69682
 346.60; 2727.850;  275.000; 3475.400;76.64199
 346.94; 2686.900;  278.950; 3403.000;77.07783
 347.28; 2659.900;  276.450; 3385.100;76.67154
 347.62; 2667.200;  254.300; 3408.100;76.50770
 347.96; 2694.550;  263.100; 3431.100;76.75031
 348.30; 2683.000;  250.950; 3385.250;77.59468
 348.64; 2680.800;  268.500; 3423.800;76.45232
 348.98; 2662.500;  277.950; 3392.350;76.56531
 349.32; 2667.200;  254.900; 3412.450;76.39784
 349.66; 2568.850;  264.700; 3354.800;74.56555
 350.00; 2599.250;  258.450; 3372.650;75.16537
 350.35; 2593.350;  273.550; 3357.450;75.22294
 350.69; 2511.800;  259.800; 3311.950;73.78406
 351.03; 2562.450;  277.350; 3342.250;74.55708
 351.37; 2495.250;  258.800; 3289.550;73.79196
 351.71; 2476.150;  274.800; 3274.750;73.37955
 352.05; 2457.350;  255.850; 3293.600;72.47140
 352.39; 2434.950;  242.950; 3290.850;71.91837
 352.73; 2415.300;  271.900; 3297.750;70.83630
 353.07; 2440.800;  262.050; 3307.800;71.53411
 353.41; 2374.400;  245.650; 3292.150;69.87527
 353.75; 2366.050;  262.550; 3294.550;69.37665
 354.09; 2385.400;  255.200; 3301.700;69.92286
 354.43; 2367.850;  283.550; 3302.800;69.03370
 354.77; 2347.850;  240.550; 3343.000;67.92374
 355.11; 2356.550;  276.700; 3389.200;66.82249
 355.46; 2268.350;  240.050; 3280.400;66.71272
 355.80; 2274.400;  251.600; 3330.250;65.70412
 356.14; 2305.700;  248.800; 3383.800;65.61084
 356.48; 2252.250;  252.350; 3393.150;63.67486
 356.82; 2210.900;  255.850; 3324.900;63.70212
 357.16; 2261.250;  292.700; 3424.600;62.85481
 357.50; 2212.150;  261.500; 3399.900;62.15428
 357.84; 2109.550;  253.550; 3323.500;60.45701
 358.18; 2084.150;  261.300; 3331.850;59.36558
 358.52; 2099.400;  283.900; 3416.100;57.96245
 358.86; 2034.900;  260.450; 3352.900;57.38007
 359.20; 1985.250;  280.300; 3380.100;55.00193
 359.54; 1941.900;  269.100; 3348.550;54.32139
 359.88; 1915.800;  261.550; 3362.400;53.34828
 360.22; 1867.250;  280.400; 3380.100;51.19366
 360.56; 1787.450;  267.700; 3331.700;49.60019
 360.90; 1749.450;  249.200; 3338.300;48.56592
 361.24; 1714.050;  268.150; 3356.400;46.81940
 361.58; 1634.100;  254.550; 3360.000;44.42351
 361.92; 1597.950;  281.500; 3373.350;42.57807
 362.26; 1497.400;  262.200; 3328.350;40.28505
 362.61; 1457.750;  244.100; 3367.600;38.85545
 362.95; 1388.600;  263.200; 3286.100;37.22915
 363.29; 1356.250;  268.750; 3314.150;35.70960
 363.63; 1262.450;  259.900; 3293.300;33.05037
 363.97; 1207.100;  275.500; 3323.250;30.56681
 364.31; 1181.700;  266.650; 3309.950;30.06769
 364.65; 1126.250;  273.100; 3316.000;28.03740
 364.99; 1081.200;  265.150; 3343.050;26.51321
 365.33; 1015.950;  266.600; 3328.000;24.47736
 365.67;  946.100;  257.100; 3290.750;22.71191
 366.01;  953.250;  274.500; 3400.600;21.71236
 366.35;  889.650;  283.900; 3390.400;19.49944
 366.69;  827.600;  250.500; 3410.550;18.26237
 367.03;  804.000;  254.200; 3379.250;17.59332
 367.37;  774.000;  251.100; 3410.800;16.54904
 367.71;  770.200;  285.400; 3370.300;15.71526
 368.05;  738.350;  269.600; 3412.650;14.91386
 368.39;  682.450;  258.650; 3428.500;13.36972
 368.73;  702.200;  277.250; 3466.700;13.32361
 369.07;  693.750;  288.450; 3363.300;13.18113
 369.41;  654.800;  270.400; 3385.250;12.34088
 369.75;  633.050;  255.650; 3341.750;12.22903
 370.09;  599.550;  257.550; 3332.800;11.12105
 370.43;  604.150;  265.400; 3386.750;10.85268
 370.77;  626.050;  262.250; 3431.300;11.47978
 371.11;  573.000;  243.800; 3313.200;10.72522
 371.45;  605.300;  282.500; 3324.750;10.61057
 371.79;  578.450;  265.000; 3298.600;10.33261
 372.13;  587.000;  260.800; 3401.200;10.38721
 372.47;  586.600;  242.650; 3346.400;11.08176
 372.81;  575.250;  264.550; 3336.050;10.11558
 373.15;  599.450;  281.200; 3321.250;10.46858
 373.49;  555.050;  258.050; 3312.650; 9.72304
 373.83;  559.300;  264.200; 3337.200; 9.60299
 374.17;  572.400;  242.300; 3327.400;10.69982
 374.51;  531.650;  247.000; 3301.550; 9.31889
 374.85;  566.550;  263.800; 3366.900; 9.75637
 375.19;  537.400;  257.000; 3373.550; 8.99713
 375.53;  565.550;  262.200; 3377.100; 9.73867
 375.87;  583.650;  280.250; 3376.600; 9.79863
 376.21;  563.700;  248.850; 3458.700; 9.80887
 376.55;  529.600;  240.750; 3385.450; 9.18530
 376.89;  587.350;  266.350; 3494.850; 9.94270
 377.23;  561.950;  273.300; 3514.450; 8.90579
 377.57;  575.400;  261.100; 3512.400; 9.66690
 377.91;  596.950;  281.200; 3575.400; 9.58503
 378.25;  565.500;  243.200; 3779.050; 9.11521
 378.59;  577.850;  249.150; 3746.900; 9.39747
 378.93;  582.750;  253.200; 3639.000; 9.73330
 379.27;  582.000;  261.850; 3537.900; 9.77244
 379.61;  597.900;  267.000; 3522.600;10.16403
 379.95;  595.800;  270.050; 3543.050; 9.95264
 380.29;  581.800;  255.950; 3441.750;10.22820
 380.63;  597.750;  283.200; 3392.850;10.11529
 380.97;  570.050;  243.100; 3279.750;10.76680
 381.31;  590.850;  278.250; 3362.150;10.13651
 381.65;  605.150;  280.700; 3405.550;10.38290
 381.99;  598.600;  275.150; 3445.100;10.20363
 382.33;  586.850;  261.100; 3346.100;10.55916
 382.67;  589.900;  264.900; 3178.350;11.15516
 383.01;  606.400;  283.200; 3235.750;10.94647
 383.35;  601.200;  251.550; 3350.100;11.28431
 383.69;  567.700;  249.550; 3284.350;10.48339
 384.03;  608.750;  255.850; 3384.050;11.28125
 384.37;  600.400;  260.800; 3204.750;11.53552
 384.71;  591.850;  267.150; 3198.550;11.07662
 385.05;  589.300;  248.850; 3276.850;11.24339
 385.39;  605.200;  258.150; 3311.650;11.36565
 385.73;  599.850;  265.300; 3378.900;10.74480
 386.07;  606.250;  242.050; 3432.400;11.41568
 386.41;  623.400;  255.100; 3540.300;11.21089
 386.75;  623.100;  259.850; 3505.550;11.19173
 387.09;  607.950;  272.950; 3490.100;10.41294
 387.43;  617.250;  256.350; 3471.650;11.22446
 387.77;  616.100;  269.100; 3519.750;10.67479
 388.11;  601.650;  259.200; 3533.950;10.45729
 388.45;  611.250;  263.750; 3432.200;10.96751
 388.79;  604.250;  267.200; 3347.900;10.94070
 389.13;  596.300;  283.100; 3288.600;10.42089
 389.47;  590.550;  263.950; 3335.750;10.63220
 389.81;  572.300;  253.750; 3343.650;10.30940
 390.15;  573.250;  260.100; 3274.800;10.38743
 390.49;  568.000;  236.650; 3321.050;10.74277
 390.82;  583.250;  262.450; 3357.100;10.36628
 391.16;  574.200;  264.750; 3363.700; 9.98564
 391.50;  555.750;  245.650; 3397.900; 9.83742
 391.84;  595.900;  277.050; 3431.350;10.10842
 392.18;  574.050;  254.400; 3426.600;10.07660
 392.52;  575.350;  267.400; 3394.600; 9.84747
 392.86;  567.300;  273.150; 3290.900; 9.74733
 393.20;  559.600;  242.250; 3280.750;10.44430
 393.54;  591.550;  276.600; 3209.750;10.73760
 393.88;  600.400;  275.650; 3271.650;10.83945
 394.22;  579.050;  265.050; 3210.950;10.65888
 394.56;  583.000;  269.400; 3146.200;10.90100
 394.90;  590.650;  288.650; 3231.150;10.26338
 395.24;  585.000;  272.050; 3130.400;10.94862
 395.58;  596.400;  274.350; 3194.250;11.02949
 395.92;  586.100;  261.300; 3109.450;11.40389
 396.26;  599.250;  264.500; 3209.650;11.36614
 396.60;  648.050;  255.500; 3364.750;12.62523
 396.94;  676.000;  271.100; 3445.350;12.75577
 397.28;  661.550;  258.550; 3527.850;12.32680
 397.62;  705.050;  290.300; 3634.600;12.40170
 397.95;  700.150;  257.100; 3676.300;12.95771
 398.29;  727.650;  287.800; 3597.850;13.28832
 398.63;  707.250;  267.150; 3371.100;14.17871
 398.97;  709.450;  266.800; 3404.650;14.10679
 399.31;  687.450;  243.900; 3198.350;15.01295
 399.65;  721.950;  264.850; 3123.200;15.99174
 399.99;  714.200;  251.450; 3119.600;16.13409
 400.33;  728.600;  254.900; 3159.350;16.30945
 400.67;  749.550;  257.850; 3119.450;17.18269
 401.01;  754.400;  264.500; 3080.250;17.39856
 401.35;  726.700;  271.300; 3027.750;16.52125
 401.69;  747.850;  250.400; 3041.200;17.82464
 402.03;  768.750;  274.000; 3031.850;17.93970
 402.37;  782.250;  270.500; 3088.100;18.16262
 402.71;  772.150;  247.200; 3047.750;18.74453
 403.04;  767.600;  257.950; 2966.950;18.81321
 403.38;  813.150;  251.550; 3125.500;19.54105
 403.72;  814.450;  252.350; 3191.850;19.12230
 404.06;  834.450;  259.150; 3370.700;18.48918
 404.40;  875.700;  266.500; 3381.900;19.55447
 404.74;  863.100;  268.450; 3404.700;18.96054
 405.08;  873.700;  266.000; 3479.750;18.90937
 405.42;  850.450;  257.200; 3293.150;19.54084
 405.76;  813.900;  254.750; 3128.900;19.45445
 406.10;  810.900;  261.750; 3108.300;19.29177
 406.44;  806.600;  266.000; 3078.150;19.22373
 406.78;  789.000;  276.800; 2973.800;18.99147
 407.11;  803.000;  265.300; 3134.500;18.74042
 407.45;  779.550;  257.950; 3086.150;18.44283
 407.79;  788.950;  240.100; 3186.800;18.62592
 408.13;  760.500;  268.100; 3095.150;17.41745
 408.47;  781.400;  256.450; 3220.650;17.70967
 408.81;  775.100;  273.900; 3204.000;17.10522
 409.15;  757.700;  263.850; 3166.550;17.01347
 409.49;  697.650;  255.600; 3015.400;16.01747
 409.83;  719.850;  273.200; 3144.450;15.55594
 410.17;  683.900;  227.000; 3021.750;16.34851
 410.51;  691.550;  264.750; 2987.600;15.67475
 410.84;  710.000;  283.850; 3084.400;15.21665
 411.18;  662.400;  251.650; 3118.900;14.32557
 411.52;  646.950;  246.200; 3078.350;14.15003
 411.86;  643.850;  257.050; 3158.100;13.33310
 412.20;  628.650;  259.400; 3097.950;13.00840
 412.54;  618.050;  277.850; 3073.750;12.16782
 412.88;  624.850;  255.500; 3061.050;13.16498
 413.22;  559.800;  235.900; 2879.300;12.25316
 413.56;  601.100;  268.250; 2832.850;12.97863
 413.90;  558.950;  259.300; 2908.600;11.31054
 414.23;  570.300;  252.050; 2953.500;11.78071
 414.57;  538.500;  251.650; 2846.500;11.05459
 414.91;  565.150;  278.150; 3023.100;10.45556
 415.25;  531.850;  242.200; 2911.900;10.84953
 415.59;  533.700;  265.400; 2928.050;10.07643
 415.93;  506.050;  261.300; 2902.200; 9.26767
 416.27;  546.450;  270.900; 2863.000;10.63038
 416.61;  518.600;  260.650; 2961.600; 9.55034
 416.95;  499.850;  246.050; 2940.950; 9.41779
 417.28;  527.250;  277.800; 2819.550; 9.81410
 417.62;  502.500;  231.950; 2863.200;10.28219
 417.96;  520.100;  246.950; 2736.300;10.97274
 418.30;  516.050;  233.950; 2744.350;11.23725
 418.64;  543.500;  260.050; 2759.450;11.34072
 418.98;  525.600;  241.950; 2843.050;10.90500
 419.32;  575.250;  266.400; 2941.600;11.54493
 419.66;  557.850;  257.850; 3063.450;10.69290
 419.99;  566.600;  240.550; 2991.300;11.85313
 420.33;  638.000;  283.450; 3293.750;11.77790
 420.67;  638.150;  272.000; 3439.150;11.56087
 421.01;  691.950;  293.300; 3493.500;12.45703
 421.35;  627.400;  241.200; 3442.150;12.06517
 421.69;  665.100;  259.150; 3245.400;13.59397
 422.03;  669.100;  258.300; 3174.150;14.08852
 422.37;  708.100;  264.850; 3282.600;14.68809
 422.70;  696.250;  255.150; 3215.600;14.89976
 423.04;  750.900;  268.750; 3226.850;16.29931
 423.38;  682.400;  251.250; 2863.700;16.50367
 423.72;  709.600;  258.200; 2886.800;17.17264
 424.06;  736.700;  265.850; 2912.750;17.78873
 424.40;  761.900;  258.950; 3059.550;17.95865
 424.74;  754.000;  279.500; 2809.850;18.75235
 425.08;  783.600;  277.400; 2885.800;19.40653
 425.41;  720.150;  260.200; 2608.250;19.58860
 425.75;  807.400;  275.650; 2791.600;21.13516
 426.09;  815.800;  268.400; 2828.350;21.38323
 426.43;  855.500;  263.800; 3077.050;21.03261
 426.77;  877.000;  259.050; 3226.150;20.82673
 427.11;  900.250;  278.900; 3082.800;22.16021
 427.45;  887.900;  258.800; 3000.350;22.94687
 427.78;  870.750;  260.950; 2950.850;22.66999
 428.12;  890.500;  242.950; 3000.100;23.48621
 428.46;  944.950;  279.850; 3189.800;22.85606
 428.80;  973.700;  255.150; 3565.600;21.70551
 429.14; 1092.150;  283.050; 3810.250;22.93888
 429.48; 1039.450;  270.900; 3501.450;23.79007
 429.81; 1015.400;  267.350; 3491.450;23.20182
 430.15;  984.150;  268.200; 3397.000;22.88258
 430.49;  957.000;  257.850; 3174.000;23.97510
 430.83;  904.100;  259.800; 2886.500;24.52888
 431.17;  924.550;  289.050; 2928.100;24.08063
 431.51;  865.700;  267.000; 2693.700;24.67137
 431.85;  861.100;  274.300; 2728.750;23.90760
 432.18;  859.100;  247.400; 2803.450;23.93146
 432.52;  828.100;  257.850; 2796.650;22.46140
 432.86;  923.050;  266.650; 3066.500;23.44411
 433.20;  927.300;  258.350; 3125.150;23.33438
 433.54;  939.000;  279.600; 3092.350;23.44325
 433.88;  850.750;  244.400; 2867.800;23.11314
 434.21;  827.600;  264.700; 2822.650;22.00590
 434.55;  805.850;  246.400; 2787.450;22.01649
 434.89;  811.900;  247.400; 2856.800;21.63333
 435.23;  777.450;  248.900; 2924.200;19.75666
 435.57;  823.750;  273.350; 3003.600;20.15933
 435.91;  833.050;  246.550; 3124.850;20.37661
 436.24;  787.350;  245.000; 2910.050;20.35046
 436.58;  758.150;  266.400; 2828.450;19.19362
 436.92;  780.400;  273.450; 2880.750;19.44349
 437.26;  776.600;  254.400; 3070.750;18.54173
 437.60;  765.300;  264.350; 3075.450;17.82043
 437.94;  774.750;  268.950; 3103.750;17.84253
 438.27;  744.900;  254.250; 3148.850;16.95053
 438.61;  741.900;  267.050; 3231.800;16.01653
 438.95;  646.400;  245.750; 2785.400;15.77580
 439.29;  678.500;  283.300; 2770.050;15.89223
 439.63;  656.350;  258.150; 2835.850;15.44788
 439.96;  664.400;  273.650; 2934.150;14.68709
 440.30;  648.250;  270.450; 3303.950;12.45426
 440.64;  673.600;  267.050; 3486.800;12.62676
 440.98;  646.300;  277.450; 3346.100;12.01994
 441.32;  658.900;  282.250; 3431.300;11.96075
 441.66;  627.100;  273.050; 3225.900;11.99011
 441.99;  601.150;  269.100; 3128.000;11.61461
 442.33;  595.350;  260.800; 3365.100;10.77699
 442.67;  561.950;  263.700; 3353.950; 9.65132
 443.01;  569.700;  243.550; 3155.150;11.20175
 443.35;  579.150;  281.250; 3233.550;10.09044
 443.68;  564.500;  268.200; 3214.350;10.05719
 444.02;  574.200;  292.250; 3363.950; 9.17896
 444.36;  578.750;  273.500; 3203.900;10.41667
 444.70;  541.450;  268.700; 3006.800; 9.96129
 445.04;  520.850;  237.650; 2940.400;10.47822
 445.37;  578.450;  262.900; 3233.700;10.62172
 445.71;  563.300;  274.250; 3128.700;10.12629
 446.05;  598.400;  291.600; 3097.450;10.93430
 446.39;  519.850;  245.200; 2932.550;10.22010
 446.73;  561.600;  248.550; 2905.500;11.78231
 447.06;  575.850;  249.800; 2964.050;12.01253
 447.40;  585.800;  253.900; 2991.650;12.12309
 447.74;  572.750;  260.150; 2791.900;12.34719
 448.08;  621.650;  270.800; 3007.750;12.81902
 448.42;  621.100;  249.800; 2911.050;13.95209
 448.75;  591.250;  244.700; 2843.950;13.33269
 449.09;  648.400;  266.000; 2914.300;14.43945
 449.43;  630.750;  250.150; 2792.000;14.97335
 449.77;  653.150;  255.750; 2838.300;15.38789
 450.11;  664.550;  253.250; 2746.850;16.49422
 450.44;  646.850;  236.750; 2569.650;17.57898
 450.78;  670.200;  234.650; 2681.150;17.80299
 451.12;  708.450;  253.600; 2691.600;18.65669
 451.46;  734.300;  272.500; 2695.600;19.05823
 451.79;  720.700;  264.150; 2734.050;18.48455
 452.13;  727.850;  262.900; 2662.750;19.37413
 452.47;  738.850;  262.700; 2553.950;20.78123
 452.81;  732.700;  255.400; 2510.700;21.16348
 453.15;  804.350;  294.150; 2652.800;21.63102
 453.48;  773.350;  254.150; 2534.750;22.76594
 453.82;  753.000;  250.000; 2464.350;22.71547
 454.16;  828.100;  269.500; 2608.400;23.88302
 454.50;  835.850;  280.100; 2645.000;23.49994
 454.83;  834.550;  244.600; 2627.500;24.75765
 455.17;  797.750;  257.600; 2380.300;25.44636
 455.51;  813.400;  263.900; 2378.200;25.98969
 455.85;  846.500;  256.300; 2518.600;26.08849
 456.19;  885.800;  287.650; 2574.550;26.15549
 456.52;  898.050;  279.900; 2634.950;26.24785
 456.86;  934.250;  262.650; 2801.350;26.45448
 457.20;  946.300;  260.050; 2748.150;27.58129
 457.54;  953.950;  252.950; 2810.850;27.40529
 457.87;  969.600;  247.700; 2923.850;26.97532
 458.21;  972.750;  269.800; 2835.950;27.39318
 458.55;  948.400;  255.550; 2800.850;27.22076
 458.89; 1021.650;  280.150; 2946.550;27.80903
 459.22;  981.300;  241.000; 2742.300;29.59661
 459.56;  968.800;  239.700; 2737.550;29.18910
 459.90;  961.150;  258.400; 2678.750;29.03506
 460.24;  968.200;  259.750; 2744.050;28.51709
 460.57;  949.400;  240.450; 2628.350;29.68927
 460.91;  918.000;  254.850; 2520.400;29.27104
 461.25;  874.600;  245.100; 2337.550;30.08435
 461.59;  917.150;  259.150; 2609.500;27.99583
 461.92;  892.900;  254.650; 2584.850;27.39035
 462.26;  962.550;  262.600; 2711.750;28.57930
 462.60;  938.350;  234.400; 2763.000;27.83952
 462.94; 1017.850;  298.900; 2900.600;27.63385
 463.27;  993.350;  269.700; 3003.600;26.46951
 463.61;  966.750;  268.250; 3021.250;25.37232
 463.95;  993.650;  274.700; 3086.950;25.56494
 464.29;  990.350;  251.750; 3095.350;25.97412
 464.62;  970.900;  246.800; 3140.400;25.02419
 464.96;  953.800;  273.650; 3090.800;24.14319
 465.30;  983.750;  256.050; 3213.800;24.60316
 465.64;  957.350;  244.250; 3159.100;24.46438
 465.97;  867.250;  269.000; 2832.000;23.34179
 466.31;  858.950;  256.950; 2810.700;23.57318
 466.65;  836.050;  294.200; 2814.950;21.49559
 466.99;  866.200;  272.650; 2870.200;22.85038
 467.32;  827.300;  255.750; 2927.300;21.39395
 467.66;  790.500;  259.650; 2832.750;20.63076
 468.00;  729.200;  250.350; 2633.600;20.09231
 468.34;  741.350;  282.250; 2660.250;19.30614
 468.67;  672.000;  252.950; 2471.000;18.89272
 469.01;  689.550;  269.900; 2574.550;18.20884
 469.35;  707.700;  274.400; 2588.550;18.72394
 469.68;  619.950;  263.000; 2477.600;16.11803
 470.02;  648.700;  272.350; 2520.900;16.73745
 470.36;  623.050;  273.650; 2444.950;16.09174
 470.70;  583.800;  238.300; 2434.450;15.73208
 471.03;  614.300;  248.550; 2619.050;15.42923
 471.37;  605.100;  253.400; 2683.350;14.47355
 471.71;  594.200;  274.250; 2762.650;12.85766
 472.05;  630.950;  275.450; 2874.550;13.67781
 472.38;  618.050;  268.050; 2993.350;12.84262
 472.72;  604.700;  244.500; 2982.050;13.15775
 473.06;  628.250;  283.750; 2940.500;12.96697
 473.39;  599.650;  257.550; 2885.700;13.01676
 473.73;  609.800;  262.900; 2986.900;12.73495
 474.07;  618.200;  263.250; 3031.250;12.82334
 474.41;  598.850;  258.550; 3158.900;11.73307
 474.74;  604.650;  258.200; 3282.800;11.45441
 475.08;  630.150;  276.750; 3201.400;12.08350
 475.42;  639.100;  259.900; 3194.800;12.92037
 475.75;  676.650;  281.900; 3311.250;13.03085
 476.09;  648.900;  260.000; 3223.550;13.12278
 476.43;  669.550;  265.750; 3094.350;14.27561
 476.77;  639.750;  237.550; 3093.600;14.08239
 477.10;  740.950;  283.950; 3331.200;14.99713
 477.44;  766.750;  264.550; 3489.150;15.57403
 477.78;  773.250;  244.150; 3346.500;17.05481
 478.11;  791.750;  279.000; 3247.650;17.27216
 478.45;  841.900;  286.200; 3360.350;18.07654
 478.79;  888.250;  269.950; 3485.800;19.22664
 479.12;  936.800;  269.050; 3636.000;19.83249
 479.46;  992.850;  242.600; 3750.900;21.38500
 479.80; 1055.050;  273.150; 3808.700;22.11537
 480.14; 1063.500;  253.750; 3551.800;24.55239
 480.47; 1080.100;  263.200; 3570.450;24.70028
 480.81; 1151.800;  236.200; 3658.550;26.75355
 481.15; 1230.700;  258.500; 3829.950;27.22144
 481.48; 1259.150;  272.700; 3721.750;28.60063
 481.82; 1277.100;  265.700; 3633.200;30.03415
 482.16; 1334.350;  275.800; 3633.300;31.52792
 482.49; 1408.850;  275.200; 3797.050;32.18905
 482.83; 1477.550;  237.850; 3871.300;34.11909
 483.17; 1581.300;  235.700; 3955.450;36.17448
 483.50; 1710.650;  266.850; 4219.250;36.52970
 483.84; 1906.950;  274.750; 4622.150;37.54428
 484.18; 1979.500;  266.850; 4630.350;39.24945
 484.51; 2162.050;  280.550; 5292.850;37.53766
 484.85; 4501.900;  254.900;12042.400;36.02969
 485.19; 6556.200;  279.200;15111.900;42.31866
 485.53; 6268.000;  253.950;13134.050;46.69257
 485.86; 3268.150;  233.950; 5907.000;53.48446
 486.20; 2464.700;  258.900; 4966.000;46.86112
 486.54; 2495.150;  268.650; 4965.850;47.40058
 486.87; 2466.850;  270.800; 4683.150;49.77053
 487.21; 2288.800;  264.200; 4219.800;51.18314
 487.55; 2172.900;  264.600; 4002.400;51.05409
 487.88; 2151.950;  251.400; 3934.650;51.59981
 488.22; 2276.050;  265.350; 4083.650;52.65956
 488.56; 2343.900;  264.750; 4096.850;54.25615
 488.89; 2385.150;  254.800; 4106.600;55.30790
 489.23; 2407.400;  262.600; 4131.250;55.44053
 489.57; 2413.750;  269.600; 3963.950;58.03863
 489.90; 2309.100;  270.300; 3873.500;56.58304
 490.24; 2398.250;  267.150; 3922.500;58.30085
 490.58; 2406.550;  254.000; 3909.250;58.88927
 490.91; 2323.800;  264.350; 3741.000;59.23662
 491.25; 2325.600;  240.800; 3729.250;59.76293
 491.59; 2404.400;  274.050; 3875.100;59.15913
 491.92; 2439.400;  271.300; 3897.600;59.78821
 492.26; 2490.350;  254.850; 3931.750;60.79850
 492.60; 2519.700;  266.650; 3949.650;61.17431
 492.93; 2525.550;  260.100; 3892.100;62.37472
 493.27; 2477.550;  269.150; 3846.800;61.72767
 493.60; 2496.300;  260.400; 3833.700;62.57241
 493.94; 2482.550;  249.800; 3744.900;63.88230
 494.28; 2352.200;  249.550; 3556.250;63.58756
 494.61; 2274.200;  264.900; 3386.900;64.35939
 494.95; 2355.650;  251.450; 3650.550;61.90462
 495.29; 2646.400;  284.600; 4102.600;61.85961
 495.62; 2890.350;  268.150; 4451.450;62.68257
 495.96; 2815.600;  276.650; 4146.650;65.60595
 496.30; 2553.200;  278.000; 3759.150;65.35771
 496.63; 2301.750;  253.650; 3437.300;64.33182
 496.97; 2224.150;  241.250; 3410.200;62.57277
 497.31; 2297.350;  265.400; 3537.500;62.09927
 497.64; 2445.750;  282.250; 3803.550;61.44038
 497.98; 2568.500;  246.200; 3987.400;62.07367
 498.32; 2612.600;  242.650; 3986.800;63.29741
 498.65; 2662.850;  286.650; 4082.450;62.60077
 498.99; 2560.750;  254.050; 3969.450;62.08484
 499.32; 2496.500;  291.250; 3784.400;63.13070
 499.66; 2343.350;  263.750; 3618.900;61.98233
 500.00; 2292.600;  266.800; 3671.150;59.50622
 500.33; 2450.450;  275.300; 4093.800;56.96347
 500.67; 2554.100;  234.300; 4189.150;58.65710
 501.01; 2499.000;  270.250; 4093.950;58.28778
 501.34; 2445.600;  269.900; 4063.900;57.34581
 501.68; 2389.350;  262.000; 4068.250;55.89097
 502.01; 2379.100;  243.000; 4016.100;56.61393
 502.35; 2363.500;  267.650; 4100.150;54.68624
 502.69; 2362.700;  257.450; 4139.650;54.22827
 503.02; 2275.250;  273.050; 3946.850;54.49943
 503.36; 2078.450;  253.900; 3717.100;52.68393
 503.70; 1966.000;  239.100; 3606.750;51.27908
 504.03; 1914.700;  277.800; 3721.350;47.53524
 504.37; 1990.950;  289.000; 3868.150;47.55179
 504.70; 1937.350;  256.100; 3851.750;46.75789
 505.04; 1866.800;  272.200; 3818.650;44.96328
 505.38; 1810.350;  270.950; 3854.800;42.95381
 505.71; 1797.450;  247.050; 3926.300;42.13902
 506.05; 1731.500;  259.500; 3838.500;41.12881
 506.39; 1562.750;  259.150; 3563.850;39.44685
 506.72; 1492.600;  257.600; 3644.100;36.46833
 507.06; 1498.300;  264.100; 3842.650;34.48883
 507.39; 1472.150;  277.250; 3975.100;32.31337
 507.73; 1414.050;  254.350; 3953.300;31.35214
 508.07; 1367.750;  257.950; 3939.850;30.14205
 508.40; 1273.700;  268.850; 3868.100;27.91831
 508.74; 1191.950;  252.700; 3892.500;25.80499
 509.07; 1168.750;  268.900; 4014.200;24.02611
 509.41; 1124.200;  271.950; 4167.350;21.87837
 509.75; 1098.500;  254.850; 4196.550;21.40320
 510.08; 1064.950;  255.350; 4307.400;19.98001
 510.42; 1044.550;  260.750; 4310.750;19.35309
 510.75;  982.250;  254.050; 4349.750;17.77962
 511.09;  994.200;  285.650; 4298.100;17.65879
 511.43;  957.250;  269.250; 4189.600;17.54945
 511.76;  944.400;  281.500; 4185.450;16.98024
 512.10;  970.250;  260.400; 4261.800;17.74004
 512.43; 1009.200;  284.300; 4240.500;18.32314
 512.77; 1006.200;  253.750; 4076.650;19.68270
 513.11; 1058.800;  269.650; 4037.650;20.94347
 513.44; 1144.600;  266.200; 4030.650;23.33409
 513.78; 1259.300;  340.900; 4017.150;24.98198
 514.11; 1236.450;  254.850; 3774.800;27.88676
 514.45; 1251.600;  254.200; 3643.250;29.43008
 514.79; 1366.700;  286.400; 3662.150;32.00178
 515.12; 1471.050;  250.050; 3680.400;35.59404
 515.46; 1555.850;  253.950; 3701.400;37.76414
 515.79; 1659.950;  243.600; 3627.900;41.85060
 516.13; 1786.600;  256.750; 3669.700;44.82486
 516.46; 1827.600;  258.650; 3549.850;47.67106
 516.80; 1876.100;  251.200; 3428.550;51.14010
 517.14; 1997.350;  276.350; 3408.750;54.94190
 517.47; 2088.300;  279.350; 3419.200;57.61263
 517.81; 2170.550;  270.400; 3391.900;60.87298
 518.14; 2339.150;  249.600; 3541.000;63.48514
 518.48; 2487.450;  254.800; 3559.100;67.56801
 518.81; 2597.400;  275.700; 3503.450;71.92936
 519.15; 2541.850;  262.050; 3377.400;73.17958
 519.49; 2522.650;  282.050; 3189.300;77.06939
 519.82; 2547.750;  244.550; 3173.900;78.62495
 520.16; 2703.200;  303.850; 3319.600;79.56064
 520.49; 2854.150;  246.350; 3419.550;82.18202
 520.83; 2997.000;  252.800; 3477.450;85.10071
 521.16; 2963.900;  275.150; 3363.500;87.06105
 521.50; 2985.150;  254.800; 3367.150;87.72632
 521.84; 3155.700;  270.400; 3494.700;89.48609
 522.17; 3309.100;  226.900; 3578.400;91.96480
 522.51; 3381.100;  237.900; 3586.600;93.86329
 522.84; 3497.450;  276.950; 3686.450;94.45667
 523.18; 3615.450;  250.000; 3736.750;96.52111
 523.51; 3665.550;  241.400; 3738.400;97.91679
 523.85; 3686.950;  259.400; 3698.650;99.65981
 524.19; 3711.250;  283.100; 3733.450;99.35659
 524.52; 3672.650;  231.200; 3688.150;99.55163
 524.86; 3805.400;  268.300; 3783.850;100.61299
 525.19; 3864.650;  255.000; 3803.150;101.73330
 525.53; 3941.000;  271.650; 3856.950;102.34430
 525.86; 3986.450;  258.350; 3921.400;101.77584
 526.20; 4151.350;  246.300; 4035.350;103.06145
 526.53; 4223.500;  277.350; 4018.000;105.49370
 526.87; 4244.300;  274.550; 4040.400;105.41445
 527.20; 4195.650;  264.650; 3986.850;105.60958
 527.54; 4418.250;  275.300; 4197.100;105.63899
 527.88; 4720.100;  265.000; 4472.850;105.87592
 528.21; 4954.750;  259.350; 4671.150;106.42822
 528.55; 5115.000;  257.600; 4652.700;110.51853
 528.88; 5083.100;  266.250; 4660.700;109.61212
 529.22; 5169.800;  242.900; 4727.050;109.87367
 529.55; 5309.300;  243.650; 4913.500;108.47564
 529.89; 5565.950;  261.500; 5102.250;109.57910
 530.22; 5773.450;  283.550; 5261.850;110.27660
 530.56; 5915.750;  260.700; 5335.150;111.44164
 530.89; 6226.250;  265.600; 5599.300;111.75451
 531.23; 6463.900;  285.050; 5824.800;111.53662
 531.56; 6628.200;  247.900; 5921.000;112.46585
 531.90; 6982.100;  248.600; 6207.150;113.00568
 532.24; 7431.450;  281.900; 6665.600;111.99696
 532.57; 7845.400;  282.200; 6944.400;113.52406
 532.91; 8205.350;  263.750; 7168.200;115.02146
 533.24; 8372.650;  291.850; 7356.550;114.38279
 533.58; 8525.900;  272.500; 7445.500;115.06204
 533.91; 8667.400;  277.300; 7598.550;114.59929
 534.25; 8876.350;  260.400; 7743.600;115.13723
 534.58; 9012.500;  264.950; 7828.200;115.65861
 534.92; 9030.950;  255.850; 7762.600;116.89613
 535.25; 8997.000;  245.350; 7718.350;117.11026
 535.59; 8919.500;  246.800; 7696.700;116.41364
 535.92; 8965.350;  248.500; 7667.400;117.49518
 536.26; 8820.500;  282.050; 7540.350;117.63705
 536.59; 8905.350;  238.550; 7617.400;117.45461
 536.93; 8950.700;  265.850; 7691.900;116.95114
 537.26; 9134.350;  274.750; 7834.650;117.19202
 537.60; 9034.450;  256.150; 7761.900;116.95434
 537.93; 8994.850;  258.250; 7668.150;117.90442
 538.27; 8961.500;  244.300; 7617.950;118.22096
 538.60; 8882.350;  267.700; 7578.650;117.83215
 538.94; 8762.450;  285.300; 7455.550;118.22671
 539.27; 8473.250;  245.700; 7284.050;116.89601
 539.61; 8305.950;  240.250; 7133.100;117.01546
 539.94; 8448.700;  244.000; 7281.400;116.58710
 540.28; 8631.450;  263.450; 7404.350;117.18411
 540.61; 8468.900;  253.150; 7242.950;117.53913
 540.95; 8417.600;  261.800; 7202.500;117.50687
 541.28; 8547.450;  268.050; 7283.950;118.00909
 541.62; 8580.100;  263.150; 7351.650;117.33018
 541.95; 8615.300;  282.450; 7346.500;117.96137
 542.29; 8509.850;  243.050; 7247.250;118.02632
 542.62; 8524.850;  250.350; 7278.350;117.73619
 542.96; 8730.900;  251.150; 7516.800;116.71014
 543.29; 8985.800;  272.350; 7686.600;117.52301
 543.63; 9116.600;  253.800; 7778.200;117.78746
 543.96; 9228.750;  265.450; 7971.800;116.31058
 544.30; 9375.750;  252.050; 8094.300;116.34034
 544.63; 9547.750;  278.100; 8240.400;116.41925
 544.97; 9545.100;  253.100; 8103.500;118.36339
 545.30; 9678.050;  265.700; 8286.850;117.34415
 545.64; 9994.050;  256.950; 8456.800;118.74729
 545.97;10260.300;  251.950; 8732.050;118.02160
 546.31;10675.600;  275.650; 9090.800;117.97814
 546.64;11087.550;  274.500; 9342.000;119.25062
 546.98;11345.700;  272.150; 9554.350;119.29877
 547.31;11689.250;  248.700; 9790.650;119.89740
 547.65;11601.700;  255.150; 9724.900;119.81889
 547.98;11407.250;  236.200; 9423.550;121.59165
 548.32;11081.400;  275.100; 9231.000;120.66124
 548.65;10944.000;  278.100; 9177.700;119.84696
 548.99;10930.000;  245.700; 9118.300;120.41905
 549.32;10854.900;  259.150; 9102.000;119.82280
 549.66;10876.800;  281.800; 9100.900;120.13697
 549.99;10760.550;  262.600; 9026.100;119.79175
 550.33;10634.300;  267.000; 8925.100;119.74105
 550.66;10665.150;  274.700; 8933.450;119.99942
 550.99;11022.550;  269.150; 9287.450;119.23976
 551.33;11403.250;  266.900; 9375.800;122.25790
 551.66;11575.450;  259.900; 9486.300;122.64318
 552.00;11333.350;  273.000; 9293.400;122.61484
 552.33;11407.550;  273.150; 9557.400;119.92783
 552.67;11607.700;  255.150; 9735.750;119.74506
 553.00;11791.500;  295.850; 9878.200;119.96692
 553.34;11883.600;  256.450; 9974.250;119.64796
 553.67;11829.750;  273.650; 9939.450;119.55658
 554.01;12022.100;  260.050;10126.800;119.20896
 554.34;12456.500;  247.700;10455.300;119.60500
 554.68;12918.250;  251.350;10783.850;120.26490
 555.01;13212.250;  262.350;10919.600;121.51259
 555.34;13457.850;  241.850;11228.300;120.29363
 555.68;13498.450;  267.300;11255.950;120.40742
 556.01;13658.400;  249.750;11418.200;120.05829
 556.35;13800.950;  247.800;11609.550;119.28753
 556.68;14096.300;  259.150;12005.600;117.79857
 557.02;14428.800;  254.200;12152.000;119.13631
 557.35;14757.850;  266.100;12327.300;120.15181
 557.69;14670.300;  250.150;12226.500;120.40521
 558.02;14955.150;  272.000;12459.550;120.47664
 558.35;15300.700;  275.650;12624.150;121.67510
 558.69;15561.250;  257.200;12881.500;121.22692
 559.02;15736.700;  240.900;13222.350;119.36880
 559.36;16227.100;  262.750;13538.350;120.25332
 559.69;16562.600;  258.850;13843.200;120.01862
 560.03;16991.250;  267.150;14077.550;121.09787
 560.36;16822.551;  240.450;13883.900;121.53891
 560.70;16979.551;  252.200;13929.550;122.29965
 561.03;16983.750;  262.500;13893.000;122.67525
 561.36;17169.000;  265.100;13986.200;123.19639
 561.70;17164.900;  262.950;13982.150;123.19924
 562.03;17170.400;  252.700;14110.100;122.08424
 562.37;17330.250;  285.600;14194.500;122.54492
 562.70;17461.551;  239.450;14355.000;122.00800
 563.04;17561.699;  264.350;14527.500;121.27300
 563.37;17791.650;  270.600;14822.600;120.40304
 563.70;17792.400;  282.450;14728.650;121.20800
 564.04;17756.449;  270.550;14709.350;121.10355
 564.37;17944.600;  263.950;14748.000;122.06979
 564.71;17972.100;  258.400;14764.550;122.11166
 565.04;17882.100;  230.300;14754.800;121.53120
 565.38;18161.850;  255.900;14868.050;122.54151
 565.71;18250.350;  282.850;15012.150;121.98475
 566.04;18348.449;  255.850;15002.200;122.69205
 566.38;18838.051;  254.600;15558.900;121.42633
 566.71;19212.400;  251.300;15802.400;121.92771
 567.05;18985.350;  264.550;15787.000;120.60467
 567.38;19470.650;  255.750;16204.000;120.48281
 567.71;19861.850;  258.300;16300.250;122.20179
 568.05;20136.051;  266.750;16470.551;122.62124
 568.38;20616.801;  254.850;16921.650;122.17072
 568.72;21179.449;  258.250;17413.801;121.95003
 569.05;22121.150;  260.250;18001.699;123.21936
 569.38;21845.150;  275.300;17695.699;123.81950
 569.72;22201.551;  259.300;18076.199;123.15415
 570.05;22614.850;  251.400;18423.051;123.06779
 570.39;23181.500;  244.350;18899.699;122.95213
 570.72;23790.699;  266.400;19676.100;121.19868
 571.05;23933.949;  279.500;19967.051;120.14927
 571.39;24003.150;  262.900;19890.250;120.95494
 571.72;24181.650;  252.950;19920.400;121.66651
 572.06;24081.900;  251.250;20041.400;120.41672
 572.39;24788.949;  284.850;20529.650;121.03898
 572.72;25440.949;  250.850;21078.551;120.94518
 573.06;25874.551;  269.450;21337.400;121.53579
 573.39;26217.850;  252.750;21538.900;121.98119
 573.73;26331.699;  268.500;21567.750;122.36675
 574.06;26483.150;  280.750;21358.350;124.31397
 574.39;26360.400;  256.000;21227.900;124.47322
 574.73;26059.400;  262.650;21081.699;123.90936
 575.06;25868.949;  264.200;20839.250;124.44562
 575.40;26094.500;  250.600;21254.051;123.04597
 575.73;26612.150;  269.800;21742.650;122.67747
 576.06;26969.301;  280.050;21883.551;123.54132
 576.40;26710.500;  267.100;21832.650;122.61871
 576.73;27578.949;  248.050;22631.551;122.10288
 577.06;28095.199;  283.350;23030.900;122.26305
 577.40;28067.199;  268.850;22778.150;123.49717
 577.73;27495.850;  263.150;22408.699;122.97143
 578.07;26864.551;  274.100;21997.199;122.40634
 578.40;26799.400;  247.300;21970.699;122.22811
 578.73;26953.650;  256.350;22326.350;120.96647
 579.07;27250.051;  276.750;22499.100;121.37916
 579.40;27726.449;  256.450;22631.250;122.77204
 579.73;27630.100;  276.250;22545.600;122.83183
 580.07;27890.500;  255.100;22576.051;123.80924
 580.40;29217.650;  253.400;24037.301;121.78091
 580.74;30514.400;  290.600;24925.551;122.68667
 581.07;30964.350;  241.850;25121.301;123.48544
 581.40;29595.600;  254.800;24010.551;123.51030
 581.74;28738.350;  266.850;23401.500;123.06864
 582.07;28114.801;  299.750;22809.750;123.56753
 582.40;27704.900;  274.150;22425.100;123.83555
 582.74;27158.699;  238.900;21839.650;124.62437
 583.07;27655.850;  271.150;22681.449;122.19694
 583.40;28086.650;  269.150;23092.000;121.88443
 583.74;28487.301;  243.700;23487.600;121.50973
 584.07;29320.400;  253.550;24140.301;121.68608
 584.41;29632.699;  273.100;24265.051;122.37271
 584.74;29655.600;  240.350;24037.500;123.60829
 585.07;29211.600;  252.800;23686.850;123.57574
 585.41;28803.350;  264.650;23347.801;123.63433
 585.74;28328.801;  277.150;23253.150;122.09110
 586.07;28695.699;  262.100;23618.350;121.73872
 586.41;29217.500;  258.750;23884.600;122.57231
 586.74;29787.150;  293.950;24585.449;121.41367
 587.07;29495.850;  265.700;24243.350;121.90582
 587.41;29912.051;  256.150;24230.650;123.69768
 587.74;29608.199;  253.050;23910.250;124.08548
 588.07;29612.500;  261.850;23839.750;124.48373
 588.41;29298.949;  263.550;23627.650;124.27356
 588.74;29455.850;  263.400;24066.449;122.64164
 589.07;29723.551;  305.950;24404.051;122.07435
 589.41;29798.850;  259.800;24518.449;121.76708
 589.74;29864.199;  262.450;24534.949;121.95592
 590.07;30151.650;  276.550;24940.750;121.12738
 590.41;30230.850;  251.100;25109.801;120.60063
 590.74;30347.650;  256.400;25254.000;120.37656
 591.07;30703.600;  272.200;25613.250;120.08737
 591.41;31191.350;  281.500;25868.551;120.80271
 591.74;31806.051;  267.350;26673.650;119.43627
 592.07;32128.199;  273.450;26889.000;119.68473
 592.41;32099.699;  248.550;26736.250;120.24883
 592.74;32261.449;  249.750;26767.051;120.72005
 593.07;32230.000;  251.400;26888.150;120.05443
 593.41;32443.699;  252.500;27050.900;120.12358
 593.74;32636.350;  268.200;27024.199;120.97530
 594.07;32573.150;  268.100;26807.900;121.72303
 594.41;33016.352;  266.600;27183.199;121.67121
 594.74;33483.352;  248.900;27428.850;122.27562
 595.07;33305.949;  260.600;27079.699;123.21573
 595.41;33590.352;  265.350;27439.699;122.63404
 595.74;33373.500;  254.100;27185.301;122.97781
 596.07;33443.648;  248.450;27255.801;122.91172
 596.41;33618.051;  260.500;27243.900;123.62249
 596.74;33622.398;  241.750;27338.900;123.18878
 597.07;33545.051;  276.350;27329.600;122.97488
 597.40;33945.398;  269.200;27358.600;124.31504
 597.74;34045.000;  230.700;27623.949;123.44027
 598.07;34065.449;  252.650;27777.150;122.84619
 598.40;34307.449;  279.750;27941.100;123.01533
 598.74;34221.801;  252.700;27764.051;123.47304
 599.07;34003.898;  262.950;27646.551;123.21589
 599.40;34178.801;  269.950;28001.750;122.27425
 599.74;33998.148;  262.350;27621.500;123.30719
 600.07;34312.500;  262.100;27926.699;123.08293
 600.40;34162.602;  265.850;27872.949;122.78274
 600.74;34416.199;  285.150;28036.449;122.98901
 601.07;34260.301;  254.050;28056.250;122.31496
 601.40;34322.250;  261.700;28173.850;122.02769
 601.73;33962.949;  239.800;27758.699;122.54541
 602.07;34212.102;  256.300;28216.949;121.44139
 602.40;34555.199;  262.600;28380.900;121.95829
 602.73;34641.898;  246.250;28430.400;122.03898
 603.07;34201.449;  245.100;27942.850;122.59606
 603.40;34243.102;  272.950;27879.000;123.05329
 603.73;33922.199;  280.250;27621.500;123.04466
 604.06;33436.102;  263.150;27187.900;123.20616
 604.40;33937.199;  262.400;27549.600;123.40878
 604.73;33908.449;  245.200;27684.100;122.68440
 605.06;33846.398;  252.950;27570.250;122.97500
 605.40;33561.898;  251.400;27448.949;122.47610
 605.73;33490.352;  259.450;27466.900;122.13898
 606.06;33098.199;  285.300;27446.600;120.80754
 606.39;33041.352;  295.400;27122.801;122.06159
 606.73;33352.852;  245.400;27260.350;122.55234
 607.06;32813.949;  259.050;26802.250;122.64874
 607.39;32849.500;  269.350;26567.449;123.88785
 607.73;32496.900;  254.100;26351.801;123.54652
 608.06;32459.449;  254.700;26429.449;123.03747
 608.39;32123.100;  263.750;26142.250;123.11127
 608.72;32101.250;  272.350;26196.100;122.77892
 609.06;32391.650;  240.050;26410.750;122.85342
 609.39;31890.199;  251.650;26246.699;121.70990
 609.72;31777.551;  295.400;25928.051;122.82050
 610.05;31553.850;  261.950;25677.400;123.12156
 610.39;31143.449;  260.000;25250.400;123.58125
 610.72;31626.400;  250.750;25456.199;124.47963
 611.05;31379.301;  266.700;25431.500;123.63540
 611.38;30976.551;  248.150;25193.750;123.18165
 611.72;30730.100;  270.950;25061.400;122.86646
 612.05;30690.051;  283.550;24919.199;123.42480
 612.38;30536.400;  287.600;24828.051;123.26098
 612.71;30739.801;  269.500;25025.850;123.08075
 613.05;30950.000;  256.550;24885.699;124.62245
 613.38;31120.000;  252.250;24962.449;124.91907
 613.71;31238.250;  257.800;24798.449;126.24136
 614.04;31078.100;  268.450;24712.350;126.04229
 614.38;31243.850;  271.650;24891.449;125.80200
 614.71;31438.750;  242.950;25069.051;125.65727
 615.04;31656.850;  280.300;25210.850;125.85583
 615.37;31565.600;  251.450;25249.301;125.26737
 615.71;31967.199;  254.500;25649.100;124.87970
 616.04;32181.350;  251.450;25837.301;124.79515
 616.37;32252.801;  250.550;25876.500;124.88220
 616.70;32432.500;  268.400;25961.551;125.18550
 617.04;32243.900;  262.950;25753.949;125.45978
 617.37;32392.100;  244.900;25858.850;125.50661
 617.70;32651.850;  285.950;26053.699;125.60623
 618.03;32309.850;  255.650;25924.650;124.87514
 618.37;32672.350;  260.550;26200.100;124.95128
 618.70;32688.801;  265.750;26198.551;125.02718
 619.03;32874.102;  272.600;26309.600;125.21221
 619.36;32814.648;  272.850;26200.600;125.50954
 619.70;32805.051;  271.850;26469.600;124.18319
 620.03;32948.000;  269.950;26595.449;124.13079
 620.36;32741.551;  322.200;26479.500;123.93997
 620.69;33057.398;  243.550;27022.801;122.53460
 621.02;33160.648;  286.100;27130.400;122.46379
 621.36;33203.602;  244.500;26986.850;123.24684
 621.69;33208.852;  265.700;26954.199;123.43576
 622.02;32782.500;  249.750;26478.600;124.03422
 622.35;33300.551;  264.150;26766.500;124.65461
 622.69;33262.648;  256.000;26849.850;124.11384
 623.02;33399.949;  266.950;26904.750;124.38339
 623.35;33090.102;  277.750;26814.949;123.64663
 623.68;33336.301;  265.900;27061.301;123.41820
 624.01;33077.898;  272.900;26897.750;123.21196
 624.35;33096.051;  252.300;27112.949;122.27460
 624.68;32851.301;  244.950;26758.850;122.97833
 625.01;32868.551;  266.850;26713.150;123.27509
 625.34;32447.250;  257.800;26334.100;123.44332
 625.68;32726.551;  250.850;26629.350;123.11428
 626.01;32611.051;  272.800;26311.350;124.19375
 626.34;32565.750;  246.650;26204.949;124.50392
 626.67;32667.199;  269.200;26217.500;124.85596
 627.00;32795.449;  248.200;26369.850;124.59875
 627.34;32750.000;  267.650;26348.051;124.54697
 627.67;32567.500;  265.450;26135.400;124.86321
 628.00;33022.051;  242.800;26578.801;124.46556
 628.33;32494.150;  267.050;26213.850;124.20453
 628.66;32716.551;  242.100;26253.449;124.84724
 629.00;32768.551;  244.750;26442.500;124.14731
 629.33;32624.949;  232.450;26445.699;123.57300
 629.66;33033.750;  270.350;26744.850;123.75456
 629.99;32562.301;  243.700;26398.850;123.56496
 630.32;32354.449;  260.000;26372.551;122.90814
 630.66;32658.551;  254.400;26756.250;122.27128
 630.99;32543.449;  265.000;26428.750;123.37088
 631.32;33196.750;  265.750;26822.000;124.00471
 631.65;32786.852;  263.650;26535.600;123.79440
 631.98;32803.602;  246.150;26465.750;124.17219
 632.31;33308.449;  284.250;26812.801;124.48550
 632.65;33029.199;  257.600;26779.150;123.56593
 632.98;33315.352;  258.300;27127.600;123.02908
 633.31;33409.500;  238.550;27232.400;122.88336
 633.64;33370.000;  256.450;27228.750;122.76873
 633.97;33458.449;  246.850;27423.449;122.20660
 634.31;33662.602;  264.600;27713.000;121.67559
 634.64;33853.551;  238.500;27779.100;122.05635
 634.97;34238.199;  263.950;28090.500;122.09293
 635.30;34218.199;  250.400;27718.250;123.66384
 635.63;34291.551;  251.100;27833.000;123.41590
 635.96;34534.051;  258.250;27803.150;124.43610
 636.30;34821.102;  281.550;27850.900;125.28243
 636.63;35097.699;  275.200;28376.750;123.91665
 636.96;34760.000;  261.250;28216.699;123.40617
 637.29;35120.750;  286.750;28561.750;123.19717
 637.62;35467.602;  287.150;28944.250;122.76347
 637.95;35309.102;  266.950;28971.199;122.08001
 638.29;35526.852;  271.500;29241.500;121.69607
 638.62;35990.102;  264.650;29516.949;122.12870
 638.95;36302.500;  265.350;29651.449;122.63332
 639.28;36437.949;  246.350;29697.600;122.88646
 639.61;36706.000;  266.000;29741.000;123.63020
 639.94;36927.648;  255.750;29763.051;124.28076
 640.28;37015.750;  262.450;29973.551;123.70225
 640.61;37137.051;  263.900;29941.100;124.24741
 640.94;37291.699;  250.250;30383.199;122.92673
 641.27;37462.898;  258.150;30715.650;122.15299
 641.60;37995.398;  262.350;31087.301;122.41073
 641.93;38346.148;  265.750;31329.250;122.58889
 642.27;38370.750;  267.900;31417.551;122.32192
 642.60;38763.398;  273.700;31458.551;123.42435
 642.93;39281.898;  270.700;31843.301;123.56029
 643.26;39471.449;  344.200;32295.350;122.45960
 643.59;39583.199;  269.750;32477.949;122.06038
 643.92;39873.949;  237.600;32465.250;122.98864
 644.25;40228.750;  258.000;32729.051;123.09657
 644.59;40572.648;  270.000;32825.648;123.79618
 644.92;41050.000;  248.450;33068.102;124.32049
 645.25;41219.801;  259.000;33084.898;124.78196
 645.58;41616.199;  275.650;33439.551;124.65527
 645.91;41871.199;  268.500;33366.500;125.69551
 646.24;42020.000;  254.100;33995.051;123.78400
 646.57;42392.199;  275.350;34525.500;122.96836
 646.90;42664.000;  245.450;34710.250;123.07789
 647.24;42623.449;  254.800;34456.199;123.87987
 647.57;43028.699;  275.500;34750.949;124.01056
 647.90;43298.949;  262.100;35099.602;123.53598
 648.23;43584.148;  251.200;35202.949;123.97934
 648.56;43727.551;  264.300;35245.699;124.24675
 648.89;43750.949;  264.050;35377.398;123.84720
 649.22;44109.250;  250.800;35500.551;124.42201
 649.56;44919.648;  257.550;36192.199;124.28700
 649.89;44616.301;  262.550;36300.551;123.07495
 650.22;44815.852;  272.350;36432.852;123.18275
 650.55;44629.000;  263.200;36379.500;122.84149
 650.88;44256.102;  267.050;35901.500;123.44529
 651.21;44462.648;  262.600;35927.051;123.93307
 651.54;44039.199;  238.200;35554.102;124.02628
 651.87;44441.949;  256.750;35725.199;124.57607
 652.20;44085.250;  273.850;35725.949;123.57914
 652.54;43539.750;  273.300;35645.449;122.31784
 652.87;43293.750;  235.350;35390.301;122.48175
 653.20;43182.000;  265.450;34924.000;123.82673
 653.53;43170.898;  263.800;34733.148;124.47899
 653.86;42722.000;  269.500;34540.949;123.87133
 654.19;42600.602;  254.950;34633.449;123.17481
 654.52;41863.449;  257.000;34352.449;122.02933
 654.85;42350.301;  238.250;35725.852;118.66694
 655.18;45517.352;  257.150;38044.051;119.77749
 655.52;46218.602;  260.900;38177.250;121.20814
 655.85;43715.648;  263.400;35202.352;124.36621
 656.18;41973.898;  277.150;34157.398;123.07096
 656.51;42463.801;  269.500;34601.199;122.90187
 656.84;42360.602;  267.850;34403.801;123.30915
 657.17;41856.852;  255.200;34116.852;122.85772
 657.50;42028.102;  266.550;33972.602;123.89927
 657.83;41983.352;  261.650;33966.500;123.78545
 658.16;42251.898;  261.500;33984.551;124.51542
 658.49;41970.898;  251.750;33456.898;125.64060
 658.82;41881.301;  276.100;33360.699;125.75398
 659.16;41734.852;  247.700;33562.898;124.52920
 659.49;41740.500;  267.050;33901.102;123.30792
 659.82;41636.449;  267.100;33901.352;122.99768
 660.15;41252.199;  266.100;33364.301;123.83180
 660.48;41551.148;  275.500;33773.250;123.21917
 660.81;41438.852;  270.300;33458.500;124.04575
 661.14;41440.852;  219.450;33625.449;123.39521
 661.47;41595.398;  251.800;34034.648;122.38044
 661.80;41475.051;  248.800;33973.898;122.24205
 662.13;41845.000;  248.750;34120.699;122.80442
 662.46;41913.051;  247.800;34185.199;122.77090
 662.79;41739.551;  267.300;34237.301;122.08493
 663.13;41757.949;  256.050;34105.898;122.60586
 663.46;41937.551;  277.600;34526.148;121.64005
 663.79;42321.301;  268.200;34813.852;121.73197
 664.12;41956.148;  241.650;34299.551;122.48112
 664.45;42328.449;  265.750;34566.051;122.63070
 664.78;41837.102;  248.250;34261.500;122.27250
 665.11;41924.750;  249.100;34325.801;122.29954
 665.44;41888.551;  276.800;34123.301;122.94255
 665.77;41754.000;  271.700;33871.102;123.46143
 666.10;41645.051;  260.650;33836.102;123.25791
 666.43;41163.750;  273.700;33150.949;124.37187
 666.76;41697.602;  250.600;33575.898;124.37098
 667.09;41477.148;  241.600;33447.449;124.18158
 667.42;41805.648;  253.900;33472.699;125.08504
 667.75;42196.051;  255.250;34433.648;122.71143
 668.08;42354.199;  258.800;34387.949;123.34148
 668.42;42515.352;  266.450;34706.250;122.67464
 668.75;42788.148;  247.800;35151.699;121.87850
 669.08;42522.898;  240.000;35078.898;121.36692
 669.41;42837.250;  256.200;35643.449;120.32879
 669.74;42265.852;  274.000;34814.250;121.57368
 670.07;42564.199;  254.900;34665.602;122.95390
 670.40;42918.551;  265.200;35153.602;122.25653
 670.73;43189.699;  252.700;35417.648;122.10170
 671.06;42841.449;  270.300;35570.148;120.59867
 671.39;43379.801;  256.200;35883.648;121.04039
 671.72;43391.199;  254.250;35779.898;121.42480
 672.05;43686.500;  261.850;36311.051;120.45940
 672.38;43299.602;  242.150;35978.148;120.48761
 672.71;43598.500;  254.750;36160.352;120.71584
 673.04;43048.000;  263.950;35457.898;121.56650
 673.37;43605.398;  259.350;35981.199;121.34324
 673.70;43585.000;  266.000;35979.051;121.29739
 674.03;43322.602;  259.800;35634.898;121.73196
 674.36;43668.500;  240.950;35731.648;122.36319
 674.69;43236.500;  288.200;35125.250;123.28340
 675.02;42875.852;  251.550;35248.051;121.79590
 675.35;43046.250;  260.300;35508.898;121.38341
 675.68;43028.398;  236.250;35375.648;121.77826
 676.01;42955.801;  268.550;35290.750;121.88626
 676.34;42585.699;  248.700;34846.648;122.36853
 676.68;42388.000;  273.450;34757.199;122.12869
 677.01;42564.000;  237.400;34992.148;121.78652
 677.34;42327.602;  235.500;34866.199;121.54563
 677.67;42128.898;  263.100;34522.250;122.20326
 678.00;42318.551;  259.400;34300.102;123.55548
 678.33;42323.648;  258.100;34170.051;124.04343
 678.66;42154.750;  283.200;34443.352;122.57425
 678.99;42186.801;  262.450;34822.648;121.30819
 679.32;41993.852;  253.250;34736.102;121.04742
 679.65;42000.000;  265.750;34554.699;121.71341
 679.98;42027.699;  258.100;34372.750;122.43889
 680.31;42177.602;  245.200;34660.750;121.84144
 680.64;41858.301;  281.700;34263.750;122.34871
 680.97;42314.199;  240.650;34676.699;122.17879
 681.30;42800.102;  253.850;34899.398;122.80438
 681.63;42199.602;  265.400;34739.250;121.64061
 681.96;42314.102;  275.500;34995.602;121.07857
 682.29;42631.648;  277.350;35609.852;119.87348
 682.62;42462.750;  262.750;35639.449;119.28756
 682.95;42036.102;  284.950;35636.398;118.10309
 683.28;42284.648;  250.100;36066.102;117.36248
 683.61;42558.449;  270.700;35967.949;118.46221
 683.94;42192.398;  244.400;35521.852;118.90881
 684.27;42774.102;  283.550;36053.398;118.78874
 684.60;42667.699;  256.000;35523.648;120.25667
 684.93;42566.301;  236.750;35679.750;119.42993
 685.26;42551.250;  274.900;35518.551;119.95451
 685.59;42645.648;  263.700;35577.449;120.01543
 685.92;42556.352;  254.700;35561.398;119.81197
 686.25;42738.949;  249.450;35495.750;120.55024
 686.58;42552.199;  247.950;35401.051;120.34287
 686.91;42548.148;  245.250;35457.148;120.13808
 687.24;42718.801;  256.250;35815.000;119.41520
 687.57;42604.551;  268.450;35539.551;120.03056
 687.90;42876.602;  334.350;35788.750;119.99146
 688.23;42545.102;  261.250;35143.449;121.21900
 688.56;42878.199;  235.950;35199.449;121.96219
 688.88;41978.898;  258.600;34364.699;122.32504
 689.21;42680.199;  267.350;35082.102;121.82436
 689.54;41875.750;  262.800;34688.148;120.87881
 689.87;41390.551;  270.650;34216.898;121.13239
 690.20;41887.801;  256.050;34375.398;122.01801
 690.53;41404.102;  291.750;33976.852;122.04907
 690.86;41574.199;  258.050;34404.602;120.99655
 691.19;41840.699;  256.250;34793.949;120.40307
 691.52;41368.148;  282.850;34291.699;120.80767
 691.85;41394.051;  239.500;34158.699;121.33114
 692.18;42087.398;  282.550;34712.602;121.41965
 692.51;41549.648;  258.950;34126.449;121.91836
 692.84;42041.352;  285.100;34543.602;121.88581
 693.17;41446.750;  263.450;34013.051;122.02604
 693.50;41396.301;  252.150;34053.898;121.72196
 693.83;41374.949;  251.550;33833.699;122.45613
 694.16;41745.000;  258.150;34221.449;122.15200
 694.49;40671.051;  273.000;33341.852;122.16345
 694.82;41439.648;  261.100;34205.500;121.31176
 695.15;41309.449;  252.300;34457.301;120.03259
 695.48;40977.199;  261.500;34482.250;118.97956
 695.81;41069.250;  277.300;34549.500;119.02344
 696.14;41488.398;  270.850;34699.250;119.71962
 696.47;40735.398;  267.500;34146.648;119.44780
 696.80;40690.648;  254.950;34063.699;119.60128
 697.13;40808.352;  263.550;34095.398;119.84211
 697.45;40460.801;  245.200;33828.301;119.74952
 697.78;40670.352;  253.850;33951.699;119.93793
 698.11;40594.750;  257.000;33981.602;119.60927
 698.44;40197.102;  256.700;33386.449;120.55751
 698.77;39895.148;  264.600;33054.551;120.86187
 699.10;39608.648;  262.450;32828.898;120.81821
 699.43;40362.602;  270.900;33777.648;119.65262
 699.76;39785.898;  272.600;33132.750;120.24686
 700.09;40210.398;  276.100;33735.000;119.35329
 700.42;39782.551;  274.000;33437.648;119.13210
 700.75;39475.551;  244.700;33541.949;117.82010
 701.08;39339.898;  269.550;33338.500;118.14814
 701.41;39139.949;  251.800;33039.398;118.60628
 701.74;39372.352;  225.550;33454.852;117.80808
 702.07;39159.602;  255.050;33451.602;117.19456
 702.39;39394.949;  260.050;33838.352;116.54818
 702.72;39278.551;  274.600;33361.398;117.88373
 703.05;39051.500;  261.200;32793.398;119.23664
 703.38;38748.148;  238.950;32560.449;119.14422
 703.71;39165.301;  780.300;33526.398;117.22007
 704.04;38522.301;  259.050;32757.801;117.73760
 704.37;38524.750;  274.800;32544.650;118.53154
 704.70;38313.199;  263.800;32387.350;118.44706
 705.03;38466.898;  269.000;33388.301;115.33425
 705.36;38455.699;  260.950;33953.500;113.36260
 705.69;38416.398;  265.400;33866.051;113.54244
 706.02;38416.898;  256.450;33510.449;114.75446
 706.34;38297.000;  280.150;33298.500;115.13855
 706.67;38344.898;  260.900;33568.801;114.33923
 707.00;38019.949;  267.600;33316.199;114.23283
 707.33;37942.148;  264.850;33495.602;113.38082
 707.66;37383.648;  255.700;32857.898;113.88173
 707.99;37315.852;  271.400;33068.199;112.95142
 708.32;37227.801;  272.650;32770.301;113.71638
 708.65;37573.602;  251.600;32818.449;114.60120
 708.98;37176.301;  280.150;32358.801;115.01778
 709.31;37082.898;  256.300;32416.301;114.51056
 709.64;36575.602;  273.750;31887.250;114.83022
 709.96;36460.801;  254.450;32271.150;113.08583
 710.29;36400.898;  251.350;32419.301;112.37753
 710.62;36402.000;  261.000;32233.699;113.03706
 710.95;36199.148;  273.800;32091.801;112.90888
 711.28;36122.801;  240.850;32168.500;112.38519
 711.61;36210.301;  261.150;32312.400;112.16146
 711.94;35544.102;  257.900;31799.850;111.87071
 712.27;35825.301;  298.050;31898.199;112.42748
 712.60;35576.852;  275.950;32032.850;111.15979
 712.92;35477.500;  305.600;32142.900;110.47388
 713.25;35212.602;  252.050;31707.150;111.14430
 713.58;35131.398;  271.300;31654.199;111.07992
 713.91;34958.801;  285.000;31580.949;110.79325
 714.24;35204.352;  285.250;31866.150;110.57032
 714.57;34953.949;  268.400;31696.301;110.36547
 714.90;34902.750;  283.000;31573.500;110.63981
 715.23;34241.102;  259.900;30708.699;111.60112
 715.55;33839.852;  279.400;30732.400;110.20409
 715.88;33690.648;  283.400;30808.150;109.44315
 716.21;33958.051;  265.450;31027.500;109.52651
 716.54;33671.301;  260.950;30947.500;108.87620
 716.87;33738.801;  287.650;31343.301;107.71357
 717.20;33382.301;  256.600;31438.750;106.23290
 717.53;32997.102;  275.650;31402.301;105.12359
 717.86;32811.602;  239.250;31410.449;104.49502
 718.18;32475.750;  259.150;31167.051;104.23419
 718.51;32441.699;  270.200;31401.699;103.34067
 718.84;32045.000;  256.150;31313.699;102.35466
 719.17;32134.150;  272.300;31528.051;101.93916
 719.50;31977.000;  257.700;31216.801;102.45550
 719.83;31876.051;  275.900;31210.650;102.15098
 720.16;31329.100;  258.300;30925.650;101.31557
 720.48;31023.000;  282.100;30927.650;100.31114
 720.81;30903.350;  237.650;31042.949;99.54683
 721.14;30596.500;  266.100;31092.750;98.39019
 721.47;30519.750;  269.400;31323.400;97.41209
 721.80;30229.650;  237.300;30942.301;97.67904
 722.13;29836.650;  256.900;30634.551;97.37340
 722.46;29520.551;  253.350;30672.449;96.21324
 722.78;29246.900;  281.400;30880.600;94.66097
 723.11;28840.500;  254.700;30627.150;94.11753
 723.44;28429.150;  265.350;29933.801;94.92845
 723.77;28333.150;  265.150;29922.000;94.64255
 724.10;27929.250;  280.750;29877.750;93.41656
 724.43;27777.750;  272.850;29896.051;92.84918
 724.75;27461.900;  268.500;29810.100;92.05121
 725.08;27244.900;  272.300;29970.350;90.82280
 725.41;27630.150;  272.150;30693.400;89.93056
 725.74;27143.301;  274.550;30617.500;88.55023
 726.07;26900.699;  247.400;30384.150;88.44119
 726.40;26489.301;  264.950;30017.301;88.14211
 726.72;26416.500;  255.600;30528.500;86.41689
 727.05;25870.750;  242.050;30233.051;85.45463
 727.38;25878.850;  274.700;30601.400;84.42775
 727.71;25498.000;  296.200;30572.650;83.23895
 728.04;24973.100;  277.550;30316.100;82.21286
 728.37;24680.600;  280.100;30584.900;80.51695
 728.69;24394.150;  269.900;30267.650;80.42020
 729.02;24137.301;  253.650;30156.449;79.87095
 729.35;23982.750;  256.300;30276.100;79.03600
 729.68;23513.100;  273.650;29962.551;78.27656
 730.01;23307.250;  263.300;29916.199;77.71230
 730.33;23211.750;  271.000;30148.699;76.78218
 730.66;22779.199;  258.100;30222.150;75.16040
 730.99;22308.949;  272.150;30317.199;73.34586
 731.32;21976.051;  253.550;30524.100;71.76117
 731.65;21562.400;  267.400;29994.150;71.63582
 731.98;20934.250;  282.850;29955.500;69.59742
 732.30;20451.850;  269.150;30071.500;67.72184
 732.63;20248.301;  261.800;30154.051;66.86181
 732.96;19959.301;  247.050;30240.600;65.72163
 733.29;19467.600;  280.900;30187.100;64.15626
 733.62;19186.650;  245.200;30174.500;63.28732
 733.94;18930.301;  293.950;30026.600;62.67975
 734.27;18278.650;  252.050;29614.000;61.39443
 734.60;17921.350;  256.650;29828.000;59.73586
 734.93;17397.199;  275.900;29206.850;59.17987
 735.26;17014.551;  266.900;29109.449;58.06578
 735.58;16674.449;  256.000;29416.900;56.30296
 735.91;16202.850;  275.800;29452.699;54.58788
 736.24;15663.400;  260.900;29419.750;52.82273
 736.57;15451.850;  281.300;29731.600;51.51238
 736.90;14932.650;  265.350;29564.301;50.06084
 737.22;14459.850;  261.650;29189.250;49.08184
 737.55;14236.200;  278.600;29683.600;47.46676
 737.88;13705.900;  259.350;29384.600;46.16802
 738.21;13271.300;  257.150;29656.699;44.26649
 738.53;12796.700;  239.550;29859.699;42.39395
 738.86;12499.100;  254.300;29880.500;41.33098
 739.19;11887.000;  286.700;29333.000;39.93727
 739.52;11386.700;  281.800;28788.199;38.95582
 739.85;10962.900;  243.100;28718.900;37.64530
 740.17;10647.850;  284.500;29166.199;35.88206
 740.50;10178.150;  274.150;29328.600;34.08772
 740.83; 9653.750;  251.400;29429.750;32.22372
 741.16; 9311.900;  253.400;29846.600;30.61007
 741.48; 8868.650;  264.150;30138.699;28.80211
 741.81; 8472.500;  248.550;30573.000;27.11987
 742.14; 8042.200;  253.250;30513.850;25.73958
 742.47; 7644.900;  278.250;30176.051;24.63944
 742.80; 7279.000;  256.750;29966.301;23.63634
 743.12; 6962.450;  260.800;29935.449;22.58376
 743.45; 6593.150;  241.200;29698.301;21.56339
 743.78; 6254.200;  255.600;30117.600;20.08774
 744.11; 5922.100;  273.350;30017.301;18.99126
 744.43; 5637.950;  252.950;30173.600;17.99760
 744.76; 5257.850;  226.200;30015.900;16.89057
 745.09; 5054.250;  259.300;29954.500;16.14722
 745.42; 4810.150;  261.000;30121.051;15.23490
 745.74; 4650.500;  408.250;30026.801;14.32295
 746.07; 4271.000;  243.650;30060.199;13.50710
 746.40; 4081.500;  252.150;30448.301;12.68158
 746.73; 3903.200;  256.350;30615.600;12.01232
 747.05; 3688.300;  284.400;30301.900;11.33972
 747.38; 3540.250;  261.200;30412.600;10.87528
 747.71; 3421.850;  269.950;30745.600;10.34236
 748.04; 3267.550;  259.000;30449.449; 9.96524
 748.36; 3197.350;  263.600;30462.301; 9.71482
 748.69; 3155.900;  275.500;30707.801; 9.46494
 749.02; 3057.650;  257.050;30409.750; 9.28806
 749.35; 3007.200;  266.350;30339.350; 9.11399
 749.67; 3031.150;  283.000;30630.949; 9.05547
 750.00; 3049.400;  246.400;30583.000; 9.23966
 750.33; 3070.250;  271.850;30595.699; 9.22838
 750.66; 3067.950;  236.850;30695.350; 9.29494
 750.98; 3174.200;  273.950;30758.301; 9.51390
 751.31; 3199.150;  256.750;30588.150; 9.70084
 751.64; 3285.400;  269.550;30579.500; 9.95003
 751.97; 3409.750;  283.300;30695.900;10.28011
 752.29; 3513.250;  258.550;30582.500;10.73310
 752.62; 3697.200;  272.950;30878.350;11.18839
 752.95; 3813.350;  279.050;30490.900;11.69839
 753.27; 3927.750;  259.750;30559.900;12.10555
 753.60; 4120.850;  272.450;30515.250;12.72501
 753.93; 4331.200;  286.500;30808.699;13.25167
 754.26; 4588.800;  267.350;31484.000;13.84341
 754.58; 4665.850;  256.850;30668.500;14.49773
 754.91; 4896.450;  254.500;30386.000;15.40564
 755.24; 5085.650;  266.600;30343.350;16.02251
 755.57; 5295.900;  239.200;30190.900;16.88285
 755.89; 5530.450;  270.550;30057.100;17.65864
 756.22; 5742.800;  277.550;29618.100;18.62695
 756.55; 6052.150;  269.050;29365.650;19.87552
 756.87; 6285.150;  264.300;29595.850;20.52687
 757.20; 6467.050;  286.850;29914.449;20.85960
 757.53; 6717.150;  260.000;29801.650;21.85778
 757.85; 6922.200;  279.550;29041.400;23.09535
 758.18; 7146.200;  252.350;28839.199;24.11546
 758.51; 7384.600;  261.100;28842.250;24.92377
 758.84; 7622.950;  270.600;29513.650;25.14221
 759.16; 7877.750;  283.450;29449.100;26.03851
 759.49; 8101.200;  279.900;29492.350;26.77386
 759.82; 8278.900;  264.700;29451.350;27.45845
 760.14; 8584.300;  259.150;29695.801;28.28158
 760.47; 8737.200;  245.300;30087.199;28.45630
 760.80; 8994.350;  268.300;30137.801;29.21391
 761.12; 9179.150;  260.250;29864.301;30.12730
 761.45; 9448.650;  261.600;29719.000;31.18758
 761.78; 9616.900;  262.000;29579.551;31.90887
 762.11; 9725.850;  259.600;28996.900;32.94064
 762.43; 9973.350;  251.950;28859.949;33.98140
 762.76;10274.650;  281.550;29188.100;34.57037
 763.09;10358.400;  288.050;28900.199;35.19606
 763.41;10527.650;  259.150;28859.750;35.90309
 763.74;10612.750;  256.950;28537.949;36.61752
 764.07;10917.700;  268.650;28614.750;37.56796
 764.39;11099.650;  281.100;28496.051;38.34333
 764.72;11170.900;  251.850;28200.100;39.06882
 765.05;11368.050;  271.250;28041.949;39.95866
 765.37;11347.450;  232.900;27717.551;40.43912
 765.70;11547.150;  271.800;27717.000;41.08314
 766.03;11826.450;  289.850;28113.150;41.46381
 766.35;11945.250;  294.800;27737.801;42.45327
 766.68;12087.300;  254.200;27250.500;43.83230
 767.01;12073.850;  276.500;26932.699;44.25743
 767.33;12252.250;  261.000;27032.400;44.79127
 767.66;12392.500;  262.200;26836.350;45.64699
 767.99;12630.450;  248.600;26632.650;46.92930
 768.31;12741.450;  252.100;26771.400;47.09532
 768.64;12799.150;  257.600;26330.500;48.10186
 768.97;12934.850;  261.800;26259.949;48.74597
 769.29;12980.600;  257.850;26519.801;48.44556
 769.62;13076.200;  278.450;26612.150;48.59837
 769.95;13167.250;  268.850;26301.650;49.54672
 770.27;13219.050;  270.650;26158.699;50.01690
 770.60;13243.300;  288.300;26445.199;49.52804
 770.93;13277.000;  275.500;26522.449;49.53528
 771.25;13218.400;  239.900;26516.350;49.39214
 771.58;13244.500;  267.150;26641.000;49.20537
 771.91;13417.550;  277.300;26294.150;50.50669
 772.23;13450.750;  250.100;25995.900;51.27302
 772.56;13583.400;  268.400;25825.199;52.09964
 772.89;13614.750;  257.350;25429.000;53.06525
 773.21;13756.500;  240.400;25099.900;54.36996
 773.54;13847.800;  243.200;25292.850;54.31054
 773.87;13795.350;  268.200;25278.301;54.08675
 774.19;13866.200;  264.150;25277.850;54.37840
 774.52;13804.800;  270.400;24878.100;55.00067
 774.84;13787.600;  284.500;24714.051;55.27363
 775.17;13827.200;  285.300;24609.051;55.67357
 775.50;13873.200;  262.800;24911.600;55.21729
 775.82;13960.450;  237.500;24810.350;55.84599
 776.15;14051.200;  260.000;24933.900;55.89388
 776.48;13811.450;  270.950;24700.900;55.42582
 776.80;13923.150;  266.550;24714.150;55.86070
 777.13;14071.900;  251.450;24460.400;57.08819
 777.45;14202.150;  271.500;24268.801;58.05091
 777.78;14275.000;  292.750;24039.650;58.88032
 778.11;14190.150;  248.150;23895.199;58.95873
 778.43;14211.150;  264.350;23712.350;59.47970
 778.76;14148.400;  265.050;23690.400;59.26635
 779.09;14256.950;  244.500;23835.400;59.39769
 779.41;14110.650;  237.400;23318.449;60.10667
 779.74;14197.600;  246.750;23093.000;61.06407
 780.06;14321.200;  252.150;23223.850;61.24514
 780.39;14155.750;  271.100;23030.500;61.00622
 780.72;14264.700;  249.500;23338.250;60.70142
 781.04;14368.600;  246.650;23661.900;60.31091
 781.37;14266.800;  261.250;23750.051;59.62650
 781.70;14305.300;  271.100;24101.949;58.89089
 782.02;14160.750;  264.900;23964.850;58.63240
 782.35;14224.700;  268.150;24025.100;58.74723
 782.67;14161.100;  276.900;24005.199;58.51325
 783.00;14225.550;  237.900;24150.199;58.49563
 783.33;14144.600;  270.800;24082.051;58.26573
 783.65;13989.350;  262.350;23659.600;58.66929
 783.98;13920.300;  239.850;23460.500;58.91502
 784.30;13894.700;  260.550;23280.699;59.22703
 784.63;13777.000;  236.350;23311.199;58.68142
 784.96;13890.150;  259.200;23695.801;58.16095
 785.28;13932.850;  273.400;23838.500;57.96474
 785.61;13971.300;  252.550;23932.850;57.93318
 785.93;13810.100;  287.000;23861.850;57.36240
 786.26;13675.800;  243.850;23700.400;57.26311
 786.59;13775.100;  294.350;23940.500;57.01034
 786.91;13782.100;  255.500;24091.699;56.74814
 787.24;13668.250;  238.750;24063.350;56.36821
 787.56;13603.800;  262.900;23791.949;56.69970
 787.89;13523.600;  256.850;23382.150;57.36898
 788.21;13586.800;  261.800;23337.750;57.74410
 788.54;13412.050;  266.150;23166.750;57.40417
 788.87;13451.000;  257.700;22884.400;58.30855
 789.19;13567.750;  261.250;22966.449;58.60552
 789.52;13539.300;  301.700;22797.051;58.84594
 789.84;13417.200;  263.300;22994.949;57.86602
 790.17;13478.800;  257.500;23157.650;57.73455
 790.49;13404.400;  255.050;23106.150;57.54362
 790.82;13443.050;  265.950;22964.000;58.05388
 791.15;13313.850;  250.550;22559.699;58.55579
 791.47;13379.200;  265.850;22521.949;58.92025
 791.80;13238.950;  261.500;22224.000;59.08913
 792.12;13132.350;  248.650;22115.301;58.91940
 792.45;13122.050;  280.350;22454.699;57.91241
 792.77;12930.500;  247.700;22096.051;58.04923
 793.10;12976.950;  249.900;22018.850;58.46424
 793.43;12926.450;  257.050;22083.699;58.04556
 793.75;12900.100;  246.300;22094.051;57.91809
 794.08;12830.000;  255.700;21831.850;58.27870
 794.40;12783.050;  283.800;21719.250;58.31111
 794.73;12656.200;  267.750;21759.250;57.64349
 795.05;12425.800;  246.150;21140.150;58.29257
 795.38;12309.950;  251.950;20759.199;58.79872
 795.70;12328.250;  283.050;21094.500;57.87775
 796.03;12265.200;  277.150;21389.850;56.78123
 796.36;12224.950;  280.650;21424.199;56.49146
 796.68;12169.950;  259.950;21287.199;56.64079
 797.01;12201.000;  267.700;21626.750;55.86999
 797.33;12059.550;  271.350;21616.301;55.22711
 797.66;11860.100;  267.650;21570.400;54.41762
 797.98;11849.250;  271.850;21499.250;54.53989
 798.31;11667.350;  262.450;21197.449;54.47767
 798.63;11590.300;  266.300;21060.301;54.45801
 798.96;11468.200;  280.850;21328.100;53.15350
 799.28;11383.100;  260.600;21093.199;53.38988
 799.61;11221.750;  277.500;21513.650;51.53594
 799.94;11036.450;  273.500;21228.449;51.36233
 800.26;10999.000;  247.550;21295.949;51.07966
 800.59;10925.400;  253.500;21087.600;51.22324
 800.91;10820.600;  261.300;20902.801;51.15568
 801.24;10726.750;  245.000;20693.801;51.25851
 801.56;10715.800;  243.850;20901.051;50.69394
 801.89;10613.000;  264.250;20857.000;50.25434
 802.21;10568.300;  262.850;20932.400;49.85812
 802.54;10439.700;  264.950;20839.449;49.45321
 802.86;10347.650;  239.800;20582.051;49.68895
 803.19;10320.200;  293.900;20590.900;49.39794
 803.51;10322.600;  260.700;20620.699;49.41994
 803.84;10282.300;  258.500;20505.301;49.50807
 804.16;10249.900;  268.350;20732.199;48.77650
 804.49;10190.100;  261.200;20556.199;48.92289
 804.81; 9988.150;  246.500;20375.801;48.39537
 805.14; 9988.150;  247.650;20516.100;48.05745
 805.46; 9939.000;  251.100;20505.850;47.83026
 805.79; 9916.600;  256.550;20557.100;47.58516
 806.11; 9684.150;  283.200;20283.750;47.00346
 806.44; 9749.050;  253.850;20673.150;46.50110
 806.76; 9628.750;  253.300;20546.650;46.19962
 807.09; 9664.350;  267.750;20612.949;46.18583
 807.41; 9517.900;  276.550;20513.650;45.66539
 807.74; 9507.150;  289.600;20423.150;45.78204
 808.06; 9405.950;  263.000;20634.350;44.88142
 808.39; 9349.550;  274.050;20735.750;44.35360
 808.71; 9192.800;  245.750;20825.850;43.47428
 809.04; 9163.200;  271.550;20715.301;43.49324
 809.36; 9088.950;  250.950;20601.199;43.42944
 809.69; 8967.100;  257.100;20449.900;43.13418
 810.01; 8866.950;  276.050;20496.250;42.48672
 810.34; 8864.000;  308.050;20777.100;41.79945
 810.66; 8946.300;  362.950;21141.750;41.30821
 810.99; 8754.450;  282.100;20996.350;40.90107
 811.31; 8601.900;  271.250;20721.301;40.73658
 811.64; 8544.400;  268.800;20965.199;39.98570
 811.96; 8351.050;  272.200;20689.000;39.56962
 812.29; 8333.950;  268.300;20600.500;39.66934
 812.61; 8241.400;  249.300;20893.250;38.71401
 812.94; 8218.650;  271.850;20691.301;38.91780
 813.26; 8067.800;  244.750;20441.949;38.73334
 813.59; 7940.050;  257.150;20320.400;38.29340
 813.91; 7856.350;  270.250;20221.750;38.02271
 814.24; 7831.300;  260.150;20498.600;37.40973
 814.56; 7761.150;  254.300;20626.801;36.84795
 814.89; 7595.700;  268.500;20443.199;36.31876
 815.21; 7530.400;  247.250;20539.000;35.89217
 815.54; 7378.050;  260.500;20702.801;34.81775
 815.86; 7219.450;  253.950;20452.801;34.48464
 816.19; 7175.050;  248.350;20337.750;34.47938
 816.51; 7096.900;  258.700;20353.449;34.02978
 816.83; 6939.200;  251.050;20294.051;33.36901
 817.16; 6834.450;  265.500;20441.051;32.55896
 817.48; 6718.650;  259.600;20453.199;31.98563
 817.81; 6633.400;  273.650;20545.350;31.37255
 818.13; 6525.300;  291.650;20459.301;30.90915
 818.46; 6445.800;  272.000;20519.301;30.49196
 818.78; 6325.400;  273.050;20515.850;29.89878
 819.11; 6194.700;  257.700;20268.051;29.66965
 819.43; 6092.750;  238.550;20285.500;29.20245
 819.76; 5969.200;  263.000;20220.250;28.59212
 820.08; 5914.800;  275.950;20000.000;28.58870
 820.40; 5855.050;  258.050;20120.150;28.17929
 820.73; 5738.150;  253.850;19947.150;27.84856
 821.05; 5707.300;  259.800;20211.051;27.30405
 821.38; 5656.100;  265.900;20161.449;27.09249
 821.70; 5493.000;  256.150;19646.801;27.00709
 822.03; 5386.150;  284.050;19645.850;26.35137
 822.35; 5248.200;  276.900;19661.900;25.64509
 822.68; 5206.600;  251.300;19374.600;25.91237
 823.00; 5138.450;  253.050;19226.100;25.74916
 823.32; 5050.250;  291.300;19022.051;25.40715
 823.65; 4993.350;  268.500;19226.150;24.92318
 823.97; 4926.750;  282.800;19208.650;24.53760
 824.30; 4692.400;  264.150;18844.900;23.83246
 824.62; 4693.950;  252.500;19197.051;23.44447
 824.95; 4568.600;  260.200;19036.500;22.94595
 825.27; 4524.050;  253.950;19058.750;22.70750
 825.59; 4384.350;  236.500;19360.500;21.68924
 825.92; 4326.600;  258.800;19140.301;21.54384
 826.24; 4243.700;  274.550;19075.850;21.11104
 826.57; 4177.850;  274.650;18927.301;20.92571
 826.89; 4101.100;  273.750;18952.699;20.49018
 827.22; 3938.900;  249.050;18591.750;20.11618
 827.54; 3930.200;  245.400;18809.551;19.84901
 827.86; 3880.350;  259.550;19082.600;19.23599
 828.19; 3801.900;  272.950;19384.949;18.46458
 828.51; 3737.450;  247.250;19412.600;18.21099
 828.84; 3679.050;  245.300;19237.650;18.07965
 829.16; 3620.650;  248.750;19297.699;17.70124
 829.48; 3543.600;  265.800;19247.449;17.26826
 829.81; 3500.100;  268.450;19401.000;16.89085
 830.13; 3414.800;  255.000;19070.750;16.79338
 830.46; 3389.350;  307.500;18947.650;16.53340
 830.78; 3293.350;  281.100;18865.449;16.20853
 831.10; 3250.200;  270.550;18958.750;15.94402
 831.43; 3141.350;  253.350;18876.051;15.50796
 831.75; 3122.300;  307.200;18672.801;15.32811
 832.08; 3038.650;  252.700;18594.051;15.18945
 832.40; 3007.950;  259.600;18965.650;14.69230
 832.72; 2946.000;  263.800;19099.449;14.24002
 833.05; 2918.900;  282.200;19086.199;14.02202
 833.37; 2873.450;  260.000;18939.699;13.99086
 833.70; 2799.900;  280.150;18839.100;13.57701
 834.02; 2699.700;  237.750;18559.301;13.43745
 834.34; 2683.700;  283.300;18659.400;13.06262
 834.67; 2615.050;  257.250;19074.250;12.53016
 834.99; 2579.550;  253.000;19161.500;12.30425
 835.32; 2523.800;  257.700;18947.600;12.12473
 835.64; 2519.450;  266.150;18963.551;12.05141
 835.96; 2497.000;  292.750;19010.949;11.77597
 836.29; 2451.650;  250.300;18824.350;11.85175
 836.61; 2399.150;  270.950;18730.949;11.52871
 836.93; 2346.250;  284.150;18811.250;11.13018
 837.26; 2338.050;  280.450;18696.051;11.17314
 837.58; 2255.350;  253.700;18377.400;11.04438
 837.91; 2240.850;  257.650;18314.150;10.98330
 838.23; 2222.400;  266.950;18449.100;10.75478
 838.55; 2205.500;  270.950;18330.301;10.71218
 838.88; 2180.550;  259.100;18791.350;10.36814
 839.20; 2140.050;  250.850;19020.301;10.06529
 839.52; 2078.000;  277.550;18697.500; 9.77446
 839.85; 2130.300;  269.600;19000.850; 9.93367
 840.17; 2089.950;  254.600;19118.250; 9.72956
 840.50; 2060.700;  247.400;19103.850; 9.61634
 840.82; 2058.500;  256.150;18944.650; 9.64417
 841.14; 2066.600;  266.350;19053.100; 9.58255
 841.47; 2043.150;  284.000;18787.699; 9.50702
 841.79; 1992.750;  260.700;18731.949; 9.37701
 842.11; 2024.950;  287.250;18837.699; 9.36743
 842.44; 2006.700;  260.500;18860.400; 9.38822
 842.76; 2004.700;  261.200;18584.900; 9.51500
 843.08; 1995.150;  265.150;18638.449; 9.41584
 843.41; 1957.750;  248.500;18498.949; 9.36552
 843.73; 1980.500;  254.300;18386.199; 9.52024
 844.05; 1942.950;  251.700;18588.000; 9.22351
 844.38; 1981.100;  271.050;18530.400; 9.36534
 844.70; 1954.900;  254.350;18747.150; 9.19574
 845.02; 1966.100;  281.200;18466.699; 9.26507
 845.35; 1928.350;  259.000;18414.449; 9.19476
 845.67; 1982.450;  250.250;18547.801; 9.46684
 845.99; 1965.900;  263.950;18617.900; 9.27294
 846.32; 1994.550;  263.000;18680.500; 9.40166
 846.64; 2002.000;  268.300;18342.900; 9.59191
 846.96; 1941.050;  253.200;18122.000; 9.44579
 847.29; 1980.200;  265.550;18173.650; 9.57472
 847.61; 2008.000;  262.350;18426.850; 9.61023
 847.93; 2036.200;  281.450;18298.000; 9.73966
 848.26; 2009.050;  243.050;18366.250; 9.74442
 848.58; 2080.550;  272.400;18562.949; 9.88571
 848.90; 2056.550;  264.150;18413.801; 9.87567
 849.23; 2074.850;  254.300;18496.199; 9.98005
 849.55; 2087.850;  252.500;18292.699;10.17367
 849.87; 2106.050;  277.100;17947.850;10.35016
 850.20; 2159.700;  257.100;17919.750;10.77188
 850.52; 2149.350;  260.400;18000.051;10.64818
 850.84; 2181.600;  271.900;18208.801;10.64677
 851.17; 2219.000;  257.550;18345.850;10.84375
 851.49; 2218.550;  266.350;18387.949;10.77278
 851.81; 2248.500;  252.850;18405.449;10.99374
 852.14; 2277.750;  266.100;18456.699;11.05873
 852.46; 2260.150;  249.250;18307.850;11.13541
 852.78; 2292.950;  232.400;18204.250;11.46543
 853.11; 2358.300;  289.950;18302.199;11.48302
 853.43; 2395.500;  286.600;18022.350;11.89067
 853.75; 2414.850;  262.450;17787.000;12.28220
 854.07; 2395.250;  239.050;17588.500;12.42806
 854.40; 2482.550;  260.650;17801.250;12.66718
 854.72; 2467.700;  263.450;17584.350;12.72596
 855.04; 2575.050;  269.350;17781.801;13.16606
 855.37; 2552.750;  262.000;17710.100;13.12894
 855.69; 2575.950;  263.650;17667.400;13.28622
 856.01; 2603.650;  248.900;17412.600;13.71936
 856.34; 2631.700;  254.750;17387.750;13.87352
 856.66; 2643.600;  279.400;17409.051;13.80180
 856.98; 2705.300;  257.650;17541.949;14.16112
 857.30; 2707.950;  265.200;17550.750;14.13175
 857.63; 2756.000;  279.800;17776.850;14.15210
 857.95; 2792.350;  281.100;17758.551;14.36851
 858.27; 2787.700;  277.850;17481.600;14.58897
 858.60; 2815.700;  259.250;17180.100;15.10828
 858.92; 2879.400;  284.550;17000.850;15.52287
 859.24; 2934.850;  273.050;16945.650;15.96512
 859.56; 2979.900;  266.100;17011.100;16.20663
 859.89; 2992.250;  267.850;17022.000;16.26105
 860.21; 3009.450;  264.050;16998.600;16.40558
 860.53; 3095.750;  264.650;17168.600;16.74816
 860.85; 3122.000;  246.250;16730.750;17.44518
 861.18; 3166.950;  272.200;16718.500;17.60122
 861.50; 3188.850;  243.750;16539.400;18.07292
 861.82; 3200.650;  254.000;16488.551;18.15049
 862.15; 3239.200;  256.900;16351.400;18.52993
 862.47; 3294.000;  240.550;16698.551;18.55298
 862.79; 3306.150;  279.800;16497.449;18.66084
 863.11; 3384.900;  239.650;16803.500;18.98864
 863.44; 3432.050;  262.350;16970.051;18.97149
 863.76; 3423.250;  240.050;16901.449;19.10524
 864.08; 3501.150;  295.750;16853.150;19.35932
 864.40; 3507.450;  245.750;16798.801;19.70452
 864.73; 3511.000;  269.700;16843.699;19.55654
 865.05; 3539.050;  258.550;16744.199;19.89913
 865.37; 3601.550;  274.350;16477.449;20.53434
 865.69; 3648.700;  270.150;16402.551;20.94264
 866.02; 3681.850;  257.150;16417.801;21.19160
 866.34; 3709.250;  253.300;16605.449;21.13453
 866.66; 3736.000;  249.950;16394.699;21.59247
 866.98; 3770.050;  273.200;16292.550;21.82891
 867.31; 3751.000;  250.500;16302.650;21.80705
 867.63; 3785.550;  250.450;16084.200;22.32636
 867.95; 3828.250;  272.700;16012.650;22.58933
 868.27; 3867.700;  272.550;16024.500;22.82352
 868.60; 3877.300;  275.900;16057.900;22.81967
 868.92; 3913.750;  244.950;15983.000;23.31166
 869.24; 3926.150;  263.600;15849.400;23.49927
 869.56; 3948.950;  247.200;15734.050;23.90254
 869.89; 3978.200;  261.300;15744.100;24.00664
 870.21; 3956.600;  251.450;15524.900;24.25876
 870.53; 4084.050;  265.300;15525.400;25.02441
 870.85; 4101.900;  263.050;15318.300;25.49841
 871.17; 4109.250;  273.000;14991.550;26.06405
 871.50; 4143.700;  242.000;15075.650;26.30303
 871.82; 4192.450;  243.950;15179.450;26.43701
 872.14; 4247.900;  252.600;15262.050;26.61856
 872.46; 4254.300;  251.600;15395.250;26.43154
 872.79; 4295.000;  279.650;15540.650;26.31118
 873.11; 4315.600;  290.300;15320.200;26.78195
 873.43; 4335.600;  258.150;15218.000;27.25596
 873.75; 4410.700;  254.200;15341.150;27.55030
 874.07; 4369.200;  241.950;15274.250;27.45588
 874.40; 4410.850;  276.100;15146.900;27.80449
 874.72; 4386.350;  249.000;15107.300;27.84538
 875.04; 4402.400;  246.900;14813.500;28.52759
 875.36; 4447.800;  265.350;14896.850;28.58524
 875.68; 4454.450;  240.650;14868.200;28.80729
 876.01; 4496.000;  252.150;15009.650;28.75724
 876.33; 4547.650;  274.350;15141.400;28.74343
 876.65; 4573.750;  247.800;15216.650;28.89968
 876.97; 4511.150;  249.350;14824.400;29.24038
 877.30; 4597.450;  259.350;14792.500;29.84969
 877.62; 4671.600;  238.900;14986.850;30.05638
 877.94; 4611.300;  254.450;14613.600;30.34198
 878.26; 4697.350;  258.150;14415.350;31.35648
 878.58; 4681.750;  263.700;14371.350;31.31670
 878.90; 4745.150;  281.400;14327.950;31.77826
 879.23; 4697.850;  240.500;14231.200;31.85938
 879.55; 4774.400;  285.200;14392.900;31.82092
 879.87; 4723.250;  261.100;14367.200;31.63277
 880.19; 4682.400;  244.100;14343.050;31.47965
 880.51; 4759.000;  274.550;14686.950;31.11522
 880.84; 4819.800;  258.750;14738.700;31.49907
 881.16; 4783.000;  247.650;14518.950;31.77952
 881.48; 4866.150;  257.350;14521.200;32.31105
 881.80; 4823.650;  276.300;14307.350;32.40919
 882.12; 4859.500;  272.650;14208.450;32.91415
 882.45; 4869.250;  238.350;14168.350;33.24408
 882.77; 4849.400;  236.450;14024.800;33.45542
 883.09; 4973.700;  288.850;14008.250;34.14763
 883.41; 4961.750;  285.600;13941.750;34.24208
 883.73; 4911.000;  254.350;13884.050;34.16546
 884.05; 4964.750;  269.300;13915.850;34.40760
 884.38; 4903.600;  255.500;13898.700;34.06899
 884.70; 4948.350;  252.800;14041.800;34.05287
 885.02; 4926.350;  243.500;14007.100;34.02344
 885.34; 4922.700;  239.200;13887.150;34.31651
 885.66; 5007.850;  255.400;13974.800;34.64036
 885.98; 5046.150;  250.550;13912.950;35.10071
 886.31; 4987.300;  257.750;13579.950;35.50127
 886.63; 5044.350;  260.100;13693.950;35.61339
 886.95; 5043.200;  241.200;13629.950;35.86593
 887.27; 5036.950;  238.800;13396.950;36.46523
 887.59; 5020.300;  258.850;13161.150;36.90388
 887.91; 5044.250;  251.850;13248.600;36.87383
 888.23; 5083.000;  253.550;13397.300;36.74332
 888.56; 5005.850;  267.400;13242.050;36.52083
 888.88; 5044.250;  291.650;13123.650;37.03709
 889.20; 5072.600;  259.400;13186.200;37.23427
 889.52; 5046.700;  267.400;13037.650;37.42527
 889.84; 5006.150;  252.450;12880.150;37.64502
 890.16; 5021.800;  251.400;12882.200;37.76799
 890.48; 5026.700;  243.450;12748.800;38.24963
 890.81; 5010.000;  278.500;12851.950;37.63088
 891.13; 5009.050;  254.850;12847.400;37.75407
 891.45; 5052.750;  247.300;13116.050;37.34201
 891.77; 5044.250;  249.350;13172.650;37.10275
 892.09; 5068.600;  272.500;12966.450;37.78257
 892.41; 5075.900;  282.500;12747.250;38.45564
 892.73; 5003.900;  258.500;12695.300;38.15612
 893.06; 5095.300;  271.350;12671.650;38.90188
 893.38; 5056.000;  266.350;12637.700;38.71566
 893.70; 5093.300;  252.900;12932.250;38.17546
 894.02; 5086.050;  258.450;13102.100;37.58745
 894.34; 5133.850;  277.750;12965.400;38.27423
 894.66; 5165.350;  245.850;13092.800;38.29314
 894.98; 5151.950;  237.650;13006.350;38.48708
 895.30; 5209.150;  271.350;13168.950;38.28464
 895.63; 5217.950;  256.250;13189.700;38.36331
 895.95; 5213.400;  268.100;13374.550;37.73180
 896.27; 5367.300;  268.350;13616.800;38.19882
 896.59; 5256.850;  262.500;13358.100;38.13762
 896.91; 5261.300;  249.300;13415.000;38.06862
 897.23; 5232.700;  234.600;13294.600;38.27029
 897.55; 5301.700;  256.650;13291.250;38.70506
 897.87; 5292.850;  264.650;13266.300;38.67355
 898.19; 5386.450;  263.750;13155.300;39.73688
 898.52; 5330.250;  247.750;13088.950;39.57963
 898.84; 5362.850;  269.850;13374.600;38.86377
 899.16; 5336.650;  272.350;13290.450;38.90199
 899.48; 5381.850;  250.600;13302.000;39.31571
 899.80; 5338.850;  229.250;13258.850;39.21533
 900.12; 5348.300;  252.350;13478.800;38.52848
 900.44; 5457.900;  269.650;13624.250;38.84991
 900.76; 5366.400;  253.100;13442.550;38.76811
 901.08; 5357.050;  261.000;13414.650;38.74248
 901.40; 5336.650;  291.000;13241.400;38.96134
 901.72; 5388.150;  257.850;13460.250;38.85884
 902.05; 5464.800;  270.600;13728.350;38.59635
 902.37; 5400.600;  253.900;13769.850;38.07872
 902.69; 5500.400;  263.900;13948.600;38.26536
 903.01; 5480.150;  256.950;13916.200;38.23929
 903.33; 5521.150;  297.400;13967.750;38.21226
 903.65; 5431.800;  250.950;13775.600;38.30672
 903.97; 5410.300;  271.700;13664.450;38.36852
 904.29; 5395.100;  253.050;13526.100;38.74053
 904.61; 5404.250;  235.550;13456.650;39.09433
 904.93; 5398.750;  251.150;13234.400;39.64801
 905.25; 5558.150;  299.950;13582.800;39.58638
 905.57; 5459.550;  257.700;13585.200;39.03095
 905.90; 5518.400;  274.100;13824.000;38.70361
 906.22; 5430.700;  255.000;13676.350;38.56319
 906.54; 5446.400;  274.050;13550.450;38.95898
 906.86; 5459.200;  270.100;13521.650;39.15844
 907.18; 5448.750;  258.500;13360.850;39.61312
 907.50; 5401.250;  248.850;13172.350;39.86846
 907.82; 5484.750;  278.750;13326.800;39.89868
 908.14; 5464.050;  261.250;13342.450;39.77311
 908.46; 5419.250;  278.350;13259.450;39.60296
 908.78; 5311.250;  266.150;12870.700;40.02602
 909.10; 5367.750;  272.000;12825.200;40.59323
 909.42; 5308.650;  260.800;12668.850;40.68206
 909.74; 5272.350;  257.750;12563.150;40.75121
 910.06; 5321.650;  267.750;12411.950;41.61575
 910.38; 5345.550;  273.400;12365.400;41.94633
 910.70; 5319.100;  251.650;12185.800;42.46176
 911.02; 5205.150;  246.450;12089.250;41.87101
 911.34; 5200.450;  248.150;12274.150;41.17994
 911.67; 5182.750;  282.700;12270.650;40.87479
 911.99; 5195.650;  257.550;12278.750;41.07826
 912.31; 5177.950;  255.800;12302.500;40.85891
 912.63; 5114.600;  250.050;12272.750;40.46138
 912.95; 5132.750;  257.350;12239.500;40.68886
 913.27; 5142.950;  277.950;12252.250;40.62868
 913.59; 5085.050;  253.950;12051.350;40.95055
 913.91; 5052.100;  236.800;11982.650;40.99576
 914.23; 5039.950;  269.400;11814.300;41.32171
 914.55; 5011.150;  264.400;11710.500;41.47046
 914.87; 4972.650;  277.950;11763.250;40.87573
 915.19; 4875.900;  266.150;11866.700;39.73734
 915.51; 4856.000;  253.500;12007.000;39.15855
 915.83; 4829.800;  273.900;11823.100;39.44775
 916.15; 4811.700;  271.050;11867.850;39.15434
 916.47; 4787.500;  284.850;11808.500;39.07312
 916.79; 4692.600;  250.400;11630.250;39.03566
 917.11; 4682.300;  236.450;11693.650;38.80398
 917.43; 4717.800;  260.200;11667.850;39.07553
 917.75; 4700.550;  261.100;11723.050;38.73206
 918.07; 4659.900;  266.700;11546.400;38.94784
 918.39; 4593.800;  249.650;11459.650;38.75245
 918.71; 4550.850;  254.750;11380.150;38.61524
 919.03; 4528.000;  245.600;11472.800;38.14308
 919.35; 4488.900;  274.950;11423.950;37.79666
 919.67; 4495.750;  280.750;11375.300;37.99163
 919.99; 4462.600;  260.800;11105.750;38.74430
 920.31; 4460.700;  229.450;11093.950;38.94565
 920.63; 4410.350;  262.800;10974.200;38.72090
 920.95; 4433.350;  266.050;11062.550;38.59862
 921.27; 4375.000;  234.250;11076.050;38.19246
 921.59; 4370.600;  258.350;11136.850;37.80163
 921.91; 4364.650;  258.750;11110.600;37.83595
 922.23; 4271.050;  265.350;11099.500;36.97290
 922.55; 4378.850;  290.300;11447.200;36.64593
 922.87; 4329.250;  260.350;11364.850;36.64190
 923.19; 4328.800;  243.200;11195.250;37.30443
 923.51; 4306.700;  255.350;11031.000;37.59727
 923.83; 4243.500;  261.500;10797.650;37.79369
 924.15; 4173.300;  263.300;10665.800;37.58712
 924.47; 4172.300;  269.750;10662.950;37.54907
 924.79; 4100.950;  252.000;10619.700;37.12444
 925.11; 4085.300;  241.050;10468.750;37.58665
 925.43; 4140.600;  268.950;10667.800;37.23152
 925.75; 4059.300;  274.450;10503.500;37.00099
 926.07; 4017.600;  267.600;10465.700;36.77156
 926.39; 4017.700;  286.300;10461.200;36.67260
 926.71; 3958.400;  250.400;10424.250;36.44638
 927.03; 3974.000;  296.900;10275.350;36.85041
 927.35; 3972.600;  272.600;10228.200;37.16501
 927.67; 3917.200;  245.650;10103.200;37.24607
 927.99; 3839.750;  279.150; 9994.900;36.64771
 928.31; 3760.300;  260.700; 9895.200;36.32363
 928.63; 3740.250;  247.850;10016.450;35.75128
 928.95; 3729.500;  270.200;10017.650;35.48928
 929.27; 3714.350;  260.100; 9932.150;35.71373
 929.59; 3766.750;  275.250; 9776.950;36.74606
 929.91; 3635.300;  240.400; 9556.650;36.44063
 930.23; 3706.050;  256.450; 9631.050;36.79730
 930.54; 3658.450;  251.750; 9581.400;36.51477
 930.86; 3617.250;  254.350; 9617.100;35.91787
 931.18; 3631.900;  264.400; 9615.850;36.01046
 931.50; 3568.000;  250.000; 9547.950;35.68528
 931.82; 3535.250;  246.300; 9524.450;35.44834
 932.14; 3541.400;  247.650; 9535.650;35.46242
 932.46; 3452.000;  261.300; 9425.450;34.81719
 932.78; 3459.450;  238.750; 9281.400;35.61677
 933.10; 3441.800;  242.950; 9307.750;35.28870
 933.42; 3394.800;  262.150; 9187.500;35.09834
 933.74; 3391.200;  246.950; 9140.950;35.35248
 934.06; 3368.100;  239.800; 9192.750;34.94156
 934.38; 3374.600;  250.000; 9168.600;35.03465
 934.70; 3362.500;  271.550; 9276.650;34.32444
 935.02; 3326.350;  247.050; 9330.350;33.90068
 935.34; 3284.400;  258.900; 9261.400;33.60733
 935.66; 3285.450;  253.500; 9195.450;33.90703
 935.98; 3262.750;  255.150; 9062.250;34.14972
 936.29; 3216.350;  241.900; 9114.050;33.52570
 936.61; 3201.900;  241.500; 9146.200;33.24536
 936.93; 3206.800;  246.100; 9245.600;32.89850
 937.25; 3178.300;  263.150; 9289.500;32.29600
 937.57; 3108.600;  266.400; 9279.450;31.53428
 937.89; 3141.850;  252.950; 9259.650;32.07501
 938.21; 3096.950;  245.850; 9274.000;31.58011
 938.53; 3074.650;  271.150; 9105.950;31.73247
 938.85; 3049.300;  266.750; 9091.350;31.53174
 939.17; 2998.300;  260.850; 9186.900;30.66810
 939.49; 2991.600;  278.800; 9128.200;30.65519
 939.81; 2999.600;  274.250; 9171.550;30.63120
 940.12; 2906.500;  230.200; 9278.500;29.57793
 940.44; 2969.700;  278.050; 9389.150;29.54253
 940.76; 2849.750;  244.500; 9170.450;29.18737
 941.08; 2859.400;  264.950; 8974.000;29.79027
 941.40; 2864.400;  264.250; 8956.400;29.91377
 941.72; 2841.100;  285.200; 8790.500;30.05068
 942.04; 2786.450;  264.550; 8539.700;30.47558
 942.36; 2771.100;  253.700; 8629.400;30.05600
 942.68; 2721.150;  248.550; 8565.200;29.73072
 943.00; 2739.000;  279.500; 8580.100;29.63039
 943.32; 2692.550;  255.100; 8546.450;29.39750
 943.63; 2718.750;  278.900; 8715.650;28.91931
 943.95; 2663.150;  280.150; 8661.150;28.43336
 944.27; 2638.050;  264.850; 8614.050;28.42428
 944.59; 2616.400;  284.400; 8552.750;28.20393
 944.91; 2588.750;  269.650; 8518.250;28.11507
 945.23; 2550.750;  267.200; 8460.100;27.87231
 945.55; 2535.450;  269.150; 8418.900;27.80821
 945.87; 2530.450;  268.600; 8453.400;27.63476
 946.19; 2479.650;  258.100; 8307.300;27.59964
 946.50; 2446.750;  276.350; 8300.350;27.04885
 946.82; 2440.400;  261.800; 8346.300;26.94786
 947.14; 2386.200;  244.950; 8292.100;26.60880
 947.46; 2384.600;  260.950; 8361.650;26.21564
 947.78; 2371.650;  259.750; 8511.200;25.59429
 948.10; 2352.100;  255.450; 8456.700;25.56501
 948.42; 2281.400;  256.400; 8296.950;25.18484
 948.74; 2297.950;  247.900; 8254.250;25.60530
 949.05; 2249.350;  263.300; 8169.000;25.12175
 949.37; 2225.800;  257.650; 8090.700;25.12623
 949.69; 2233.350;  249.750; 8060.200;25.39674
 950.01; 2284.350;  283.950; 8162.200;25.39143
 950.33; 2286.050;  256.400; 8062.350;26.00132
 950.65; 2216.600;  265.850; 8007.450;25.19828
 950.97; 2189.550;  260.650; 8022.750;24.85023
 951.28; 2181.500;  257.550; 8021.100;24.78183
 951.60; 2154.350;  262.600; 7952.100;24.60173
 951.92; 2157.500;  284.600; 7989.300;24.30854
 952.24; 2093.400;  245.450; 7870.450;24.23541
 952.56; 2082.850;  262.450; 7810.750;24.11669
 952.88; 2056.800;  257.050; 7701.150;24.17687
 953.20; 2061.900;  288.400; 7779.700;23.67413
 953.51; 2007.000;  256.400; 7813.450;23.16512
 953.83; 2001.750;  275.100; 7826.400;22.86560
 954.15; 1973.250;  228.550; 7838.600;22.92626
 954.47; 1953.750;  250.100; 7979.500;22.04117
 954.79; 1945.150;  248.750; 7972.100;21.96456
 955.11; 1916.900;  279.500; 7866.000;21.58308
 955.42; 1891.600;  261.050; 7891.700;21.36843
 955.74; 1858.900;  266.350; 7728.150;21.34271
 956.06; 1815.550;  260.250; 7548.300;21.34041
 956.38; 1837.600;  272.650; 7390.150;21.98736
 956.70; 1783.800;  253.850; 7286.150;21.75604
 957.02; 1799.600;  257.550; 7389.900;21.62050
 957.33; 1785.350;  253.850; 7415.850;21.38369
 957.65; 1765.450;  264.800; 7441.650;20.90959
 957.97; 1807.000;  296.600; 7440.550;21.14237
 958.29; 1777.650;  273.750; 7404.450;21.09050
 958.61; 1750.850;  269.450; 7346.850;20.93141
 958.93; 1739.450;  282.750; 7412.850;20.43029
 959.24; 1714.600;  277.400; 7456.750;20.01853
 959.56; 1699.600;  311.150; 7367.950;19.67535
 959.88; 1659.400;  250.550; 7350.550;19.84296
 960.20; 1625.400;  262.950; 7289.250;19.39072
 960.52; 1610.050;  261.150; 7329.500;19.08366
 960.84; 1578.650;  249.350; 7184.750;19.16688
 961.15; 1573.050;  239.650; 7209.800;19.13015
 961.47; 1572.650;  260.300; 7253.050;18.76730
 961.79; 1554.700;  277.250; 7265.300;18.28049
 962.11; 1522.950;  253.950; 7101.400;18.53245
 962.43; 1516.850;  250.450; 7199.200;18.22486
 962.74; 1484.350;  267.600; 7161.450;17.64979
 963.06; 1515.450;  269.950; 7191.700;17.99400
 963.38; 1452.500;  248.400; 7074.750;17.63900
 963.70; 1427.800;  243.300; 7002.300;17.52478
 964.02; 1444.550;  270.700; 6969.200;17.52407
 964.33; 1405.750;  246.400; 6870.000;17.50332
 964.65; 1392.950;  247.050; 6725.900;17.68678
 964.97; 1403.000;  266.250; 6683.750;17.71328
 965.29; 1370.500;  258.300; 6863.700;16.83774
 965.61; 1355.900;  257.250; 6875.800;16.59956
 965.92; 1338.050;  249.850; 6884.900;16.40078
 966.24; 1320.750;  255.750; 6771.200;16.34576
 966.56; 1346.450;  266.900; 6730.000;16.70328
 966.88; 1275.450;  234.400; 6692.500;16.12007
 967.19; 1314.300;  269.650; 6663.200;16.33912
 967.51; 1276.250;  266.400; 6523.550;16.13914
 967.83; 1247.250;  260.500; 6471.700;15.88662
 968.15; 1221.450;  251.700; 6444.950;15.65817
 968.47; 1262.600;  265.450; 6476.950;16.05329
 968.78; 1187.450;  258.500; 6396.050;15.13552
 969.10; 1167.400;  259.600; 6396.800;14.79176
 969.42; 1216.700;  273.750; 6390.750;15.41524
 969.74; 1196.250;  266.750; 6280.050;15.45740
 970.05; 1162.100;  234.600; 6294.700;15.30503
 970.37; 1157.550;  255.350; 6376.250;14.73966
 970.69; 1151.550;  266.000; 6390.150;14.45997
 971.01; 1120.800;  274.350; 6238.200;14.19301
 971.32; 1121.750;  276.900; 6123.050;14.45139
 971.64; 1106.050;  272.250; 6135.300;14.22127
 971.96; 1058.650;  251.850; 6192.050;13.58204
 972.28; 1052.750;  258.400; 6202.100;13.36457
 972.60; 1037.650;  255.200; 6232.600;13.09014
 972.91; 1038.450;  257.600; 6192.950;13.15592
 973.23; 1026.750;  245.050; 6223.500;13.07530
 973.55; 1034.650;  252.350; 6239.000;13.06741
 973.87; 1021.600;  261.050; 6112.400;12.99786
 974.18; 1004.250;  278.100; 6076.500;12.52328
 974.50;  964.500;  247.500; 6001.650;12.46057
 974.82;  978.200;  269.800; 6016.200;12.32772
 975.14;  914.750;  248.950; 5942.150;11.69465
 975.45;  927.650;  254.850; 5959.700;11.79347
 975.77;  936.600;  248.800; 5825.650;12.33313
 976.09;  885.250;  251.600; 5761.750;11.49969
 976.40;  877.900;  258.900; 5893.300;10.98609
 976.72;  876.900;  279.050; 5747.900;10.93192
 977.04;  854.000;  250.300; 5780.800;10.91583
 977.36;  886.450;  271.300; 5726.100;11.27722
 977.67;  859.200;  254.150; 5750.200;11.00882
 977.99;  878.100;  270.150; 5790.900;11.01209
 978.31;  824.900;  258.850; 5755.700;10.29772
 978.63;  855.300;  282.950; 5711.950;10.54246
 978.94;  838.750;  263.800; 5652.250;10.67004
 979.26;  813.600;  273.900; 5536.850;10.25470
 979.58;  806.500;  251.850; 5421.900;10.72814
 979.89;  800.100;  259.350; 5442.700;10.43244
 980.21;  753.700;  252.550; 5414.300; 9.70892
 980.53;  753.300;  249.250; 5373.800; 9.83599
 980.85;  907.050;  383.550; 5553.450;10.12592
 981.16;  780.900;  259.750; 5528.800; 9.89078
 981.48;  750.150;  263.550; 5503.150; 9.28697
 981.80;  745.500;  260.550; 5476.400; 9.29762
 982.11;  753.700;  274.150; 5459.450; 9.24826
 982.43;  709.450;  260.150; 5359.950; 8.81015
 982.75;  705.300;  249.400; 5373.850; 8.89656
 983.07;  731.200;  265.150; 5378.200; 9.11491
 983.38;  717.550;  272.750; 5344.400; 8.77032
 983.70;  723.900;  274.650; 5371.950; 8.81349
 984.02;  688.950;  258.000; 5256.150; 8.62219
 984.33;  684.450;  264.800; 5162.900; 8.56761
 984.65;  674.100;  269.500; 5099.500; 8.37681
 984.97;  662.200;  255.650; 5073.900; 8.43771
 985.29;  646.750;  236.750; 5089.600; 8.44864
 985.60;  686.200;  272.800; 5175.950; 8.43131
 985.92;  644.750;  246.350; 5064.650; 8.26848
 986.24;  609.000;  236.850; 4984.750; 7.83820
 986.55;  627.500;  269.200; 5049.050; 7.49605
 986.87;  639.550;  276.350; 5017.350; 7.66083
 987.19;  615.900;  251.650; 4950.150; 7.75247
 987.50;  616.900;  252.500; 4935.200; 7.78184
 987.82;  597.050;  247.900; 4818.850; 7.63846
 988.14;  620.200;  273.100; 4804.100; 7.66056
 988.45;  577.750;  255.100; 4748.350; 7.18077
 988.77;  611.950;  257.100; 4837.050; 7.74790
 989.09;  613.300;  272.300; 4833.450; 7.47618
 989.40;  599.500;  266.900; 4841.000; 7.27138
 989.72;  589.500;  252.750; 4781.450; 7.43591
 990.04;  570.500;  260.800; 4621.350; 7.10232
 990.35;  563.500;  252.600; 4560.150; 7.21756
 990.67;  559.100;  260.850; 4493.000; 7.04724
 990.99;  561.350;  257.050; 4463.950; 7.23335
 991.30;  552.800;  257.750; 4463.300; 7.01573
 991.62;  554.200;  256.550; 4491.650; 7.02817
 991.94;  577.650;  259.850; 4499.650; 7.49564
 992.25;  541.500;  271.550; 4605.700; 6.22844
 992.57;  538.700;  249.700; 4543.150; 6.73118
 992.89;  571.250;  294.500; 4525.650; 6.54078
 993.20;  559.150;  272.500; 4475.050; 6.82086
 993.52;  544.900;  272.800; 4334.300; 6.69950
 993.84;  530.200;  253.500; 4334.800; 6.77970
 994.15;  675.500;  403.300; 4415.100; 6.78498
 994.47;  518.000;  252.600; 4209.650; 6.70702
 994.79;  509.300;  262.250; 4233.800; 6.22049
 995.10;  501.800;  255.550; 4150.750; 6.32188
 995.42;  517.150;  270.300; 4093.450; 6.45672
 995.74;  499.000;  266.900; 4006.500; 6.20655
 996.05;  508.800;  264.000; 3974.650; 6.59723
 996.37;  492.950;  247.200; 4016.550; 6.51969
 996.68;  478.350;  253.450; 4003.100; 5.99789
 997.00;  501.300;  265.100; 4048.400; 6.24323
 997.32;  511.400;  265.500; 3966.550; 6.64406
 997.63;  496.800;  266.100; 3864.250; 6.41163
 997.95;  499.550;  256.050; 3845.100; 6.78452
 998.27;  479.100;  269.450; 3839.250; 5.87288
 998.58;  480.700;  259.100; 3807.950; 6.24428
 998.90;  501.600;  286.200; 3810.100; 6.11255
 999.22;  498.300;  273.400; 3793.200; 6.38957
 999.53;  486.300;  248.950; 3806.300; 6.67210
 999.85;  491.500;  277.650; 3843.500; 5.99717
1000.16;  495.050;  272.650; 3905.650; 6.12166
1000.48;  484.500;  257.600; 3869.750; 6.28158
1000.80;  490.150;  264.800; 3885.150; 6.22454
1001.11;  460.250;  252.900; 3827.050; 5.80138
1001.43;  500.700;  273.300; 3896.450; 6.27631
1001.74;  497.600;  273.050; 3824.500; 6.32277
1002.06;  445.800;  256.550; 3793.750; 5.35028
1002.38;  493.150;  245.900; 3783.400; 6.98940
1002.69;  497.600;  275.850; 3772.600; 6.34160
1003.01;  507.800;  283.350; 3735.200; 6.50231
1003.33;  482.600;  246.300; 3725.500; 6.79179
1003.64;  473.450;  253.350; 3742.700; 6.30777
1003.96;  467.000;  253.700; 3775.850; 6.05596
1004.27;  454.550;  245.000; 3825.400; 5.85270
1004.59;  497.150;  262.650; 3854.950; 6.52785
1004.91;  471.950;  256.450; 3888.300; 5.93362
1005.22;  501.000;  263.650; 3869.600; 6.58218
1005.54;  494.600;  283.500; 3845.500; 5.92645
1005.85;  492.050;  288.050; 3877.500; 5.68332
1006.17;  482.000;  257.150; 3910.250; 6.15505
1006.49;  499.100;  274.950; 3929.850; 6.13286
1006.80;  486.100;  258.850; 3915.300; 6.21504
1007.12;  463.650;  249.150; 3875.650; 5.91479
1007.43;  533.300;  271.250; 3965.350; 7.09374
1007.75;  483.150;  236.450; 3929.250; 6.68057
1008.06;  498.600;  251.750; 3949.300; 6.67604
1008.38;  498.000;  271.400; 3947.300; 6.16448
1008.70;  476.050;  244.450; 3933.650; 6.27778
1009.01;  508.250;  292.050; 3900.200; 5.99199
1009.33;  477.550;  269.500; 3846.450; 5.81641
1009.64;  506.600;  287.200; 3806.400; 6.23437
1009.96;  492.400;  269.300; 3726.150; 6.45385
1010.27;  442.250;  245.000; 3645.900; 5.79994
1010.59;  480.950;  264.100; 3630.500; 6.44160
1010.91;  445.600;  262.550; 3553.350; 5.56248
1011.22;  456.250;  267.000; 3429.300; 5.98457
1011.54;  466.300;  274.100; 3413.650; 6.12190
1011.85;  453.350;  250.550; 3314.850; 6.61815
1012.17;  438.050;  257.350; 3269.500; 5.99904
1012.48;  433.050;  266.850; 3196.350; 5.67332
1012.80;  421.200;  266.500; 3150.800; 5.36352
1013.12;  450.700;  271.500; 3055.850; 6.43597
1013.43;  428.300;  252.150; 3003.650; 6.40196
1013.75;  437.250;  273.800; 3061.000; 5.86431
1014.06;  393.850;  237.100; 2955.800; 5.76562
1014.38;  433.100;  252.000; 2978.600; 6.64197
1014.69;  432.150;  240.900; 2979.650; 6.98311
1015.01;  428.950;  257.700; 2952.350; 6.35519
1015.32;  423.900;  265.250; 2906.150; 6.00742
1015.64;  420.900;  263.400; 2813.200; 6.17696
1015.95;  427.750;  247.000; 2763.900; 7.18145
1016.27;  447.350;  275.500; 2747.550; 6.95172
1016.59;  422.650;  270.250; 2708.550; 6.25026
1016.90;  424.050;  266.450; 2693.750; 6.49281
1017.22;  435.700;  266.900; 2700.650; 6.93580
1017.53;  422.650;  268.800; 2665.400; 6.41951
1017.85;  423.800;  256.450; 2590.800; 7.16902
1018.16;  421.000;  260.800; 2578.500; 6.91203
1018.48;  410.350;  258.600; 2581.650; 6.53236
1018.79;  432.250;  277.700; 2546.600; 6.81167
1019.11;  433.000;  267.750; 2510.500; 7.36819
1019.42;  429.250;  249.750; 2514.100; 7.92722
1019.74;  418.650;  276.550; 2461.850; 6.50254
1020.05;  411.850;  259.550; 2443.950; 6.97217
1020.37;  421.050;  258.200; 2427.900; 7.50565
1020.68;  450.650;  273.100; 2420.800; 8.26698
1021.00;  451.050;  285.300; 2422.350; 7.75602
1021.31;  429.500;  276.650; 2344.750; 7.39084
1021.63;  437.100;  270.400; 2344.350; 8.03780
1021.95;  424.200;  262.700; 2286.250; 7.98102
1022.26;  446.000;  271.750; 2309.350; 8.55173
1022.58;  428.650;  270.500; 2306.250; 7.76864
1022.89;  406.800;  236.600; 2213.450; 8.60966
1023.21;  442.850;  276.450; 2274.800; 8.32687
1023.52;  427.750;  256.150; 2228.550; 8.70006
1023.84;  422.900;  259.050; 2263.950; 8.17248
1024.15;  393.350;  253.600; 2199.200; 7.18287
1024.47;  420.500;  257.450; 2201.650; 8.38648
1024.78;  421.750;  265.400; 2164.550; 8.23263
1025.10;  415.200;  244.000; 2106.550; 9.19170
1025.41;  404.400;  253.100; 2100.350; 8.19055
1025.73;  426.450;  271.250; 2063.700; 8.65854
1026.04;  431.600;  271.450; 2062.800; 8.94018
1026.36;  412.300;  259.550; 2036.150; 8.59788
1026.67;  440.400;  276.650; 2090.850; 9.02602
1026.98;  418.550;  253.400; 2002.150; 9.44389
1027.30;  410.000;  259.250; 2021.700; 8.55343
1027.61;  415.400;  271.550; 1979.650; 8.42164
1027.93;  420.100;  285.050; 1934.400; 8.18808
1028.24;  410.650;  265.250; 1940.250; 8.68060
1028.56;  396.650;  255.700; 1944.650; 8.34542
1028.87;  427.250;  253.800; 1949.100;10.23123
1029.19;  410.200;  258.400; 1963.600; 8.90218
1029.50;  432.950;  272.900; 1978.600; 9.38325
1029.82;  423.400;  255.700; 1943.500; 9.93601
1030.13;  414.850;  260.700; 1919.350; 9.29370
1030.45;  408.400;  273.350; 1866.400; 8.47745
1030.76;  395.800;  254.950; 1849.200; 8.83488
1031.08;  405.400;  270.750; 1814.800; 8.72057
1031.39;  419.450;  268.700; 1826.100; 9.67959
1031.71;  427.950;  271.950; 1810.400;10.14008
1032.02;  407.850;  250.400; 1768.450;10.37186
1032.34;  418.200;  262.150; 1764.600;10.38637
1032.65;  414.000;  250.750; 1758.250;10.82919
1032.96;  426.000;  257.450; 1752.050;11.27726
1033.28;  404.400;  240.050; 1735.000;10.99368
1033.59;  429.250;  262.100; 1734.450;11.35260
1033.91;  406.550;  257.350; 1705.750;10.30102
1034.22;  398.100;  235.400; 1676.350;11.29116
1034.54;  395.900;  243.100; 1678.300;10.64660
1034.85;  406.550;  254.150; 1629.050;11.08444
1035.17;  425.150;  260.000; 1643.750;11.93496
1035.48;  403.850;  263.850; 1643.500;10.14750
1035.80;  402.250;  259.150; 1637.800;10.37972
1036.11;  392.650;  247.250; 1644.850;10.40355
1036.42;  416.700;  281.200; 1641.250; 9.96287
1036.74;  412.050;  246.600; 1639.300;11.87980
1037.05;  398.350;  250.800; 1612.150;10.83851
1037.37;  437.150;  272.350; 1655.800;11.91225
1037.68;  404.500;  256.450; 1573.500;11.24103
1038.00;  393.350;  257.750; 1544.950;10.53449
1038.31;  438.750;  294.550; 1529.800;11.67375
1038.62;  382.150;  251.700; 1507.300;10.38945
1038.94;  405.450;  278.150; 1535.550;10.12407
1039.25;  413.050;  263.550; 1543.600;11.67923
1039.57;  386.050;  244.900; 1510.050;11.15678
1039.88;  416.450;  266.650; 1512.500;12.02392
1040.20;  390.700;  257.700; 1459.900;11.06305
1040.51;  405.450;  276.850; 1462.200;10.84912
1040.82;  412.750;  287.200; 1441.200;10.87955
1041.14;  440.900;  273.950; 1445.450;14.25096
1041.45;  400.550;  256.500; 1419.950;12.38128
1041.77;  409.300;  269.600; 1434.900;11.98833
1042.08;  400.050;  268.900; 1436.900;11.22860
1042.39;  426.950;  294.350; 1442.500;11.54901
1042.71;  386.500;  250.300; 1427.150;11.57327
1043.02;  400.300;  266.150; 1450.900;11.32306
1043.34;  387.950;  245.850; 1420.250;12.09980
1043.65;  391.200;  270.550; 1414.000;10.55140
1043.96;  495.400;  365.550; 1464.600;11.81475
1044.28;  387.850;  254.850; 1378.850;11.83274
1044.59;  422.750;  296.850; 1397.500;11.43869
1044.91;  394.000;  254.250; 1423.600;11.95108
1045.22;  367.200;  233.200; 1385.700;11.62690
1045.53;  406.850;  273.650; 1413.800;11.68267
1045.85;  396.200;  281.600; 1416.100;10.10137
1046.16;  387.800;  262.100; 1395.100;11.09444
1046.48;  372.100;  235.400; 1344.550;12.32475
1046.79;  378.200;  251.300; 1326.950;11.79752
1047.10;  374.850;  264.950; 1303.700;10.58002
1047.42;  391.500;  247.850; 1328.050;13.29846
1047.73;  388.800;  250.350; 1317.100;12.97867
1048.05;  392.700;  270.350; 1313.050;11.73396
1048.36;  384.500;  255.450; 1327.150;12.04162
1048.67;  398.950;  250.700; 1294.500;14.20291
1048.99;  398.850;  285.450; 1326.250;10.89546
1049.30;  397.300;  275.350; 1301.750;11.88133
1049.61;  371.700;  253.700; 1272.050;11.58737
1049.93;  409.150;  278.650; 1306.700;12.69394
1050.24;  365.700;  255.600; 1272.450;10.82756
1050.55;  410.400;  291.150; 1302.350;11.79292
1050.87;  376.100;  258.900; 1258.300;11.72704
1051.18;  399.200;  274.300; 1275.300;12.47752
1051.50;  386.350;  263.900; 1259.400;12.30035
1051.81;  382.200;  273.400; 1241.600;11.23735
1052.12;  387.850;  264.650; 1233.850;12.71152
1052.44;  392.100;  259.000; 1232.800;13.66810
1052.75;  353.100;  252.050; 1169.000;11.02023
1053.06;  388.400;  263.600; 1163.100;13.87437
1053.38;  367.050;  260.850; 1148.450;11.96485
1053.69;  378.300;  280.000; 1132.350;11.53282
1054.00;  361.650;  259.550; 1086.300;12.34956
1054.32;  383.700;  272.450; 1133.400;12.92177
1054.63;  376.800;  258.450; 1121.950;13.70585
1054.94;  378.750;  273.100; 1121.850;12.44772
1055.26;  377.200;  263.700; 1139.900;12.95366
1055.57;  365.650;  253.450; 1110.800;13.08684
1055.88;  341.050;  241.100; 1106.300;11.55224
1056.20;  363.300;  225.700; 1107.700;15.60091
1056.51;  377.150;  274.400; 1095.850;12.50837
1056.82;  383.800;  266.600; 1079.650;14.41486
1057.14;  390.300;  248.050; 1070.900;17.28747
1057.45;  358.400;  253.050; 1055.300;13.13181
1057.76;  330.550;  234.050; 1014.300;12.36783
1058.08;  364.900;  243.500; 1024.150;15.55114
1058.39;  338.250;  247.250;  996.950;12.13819
1058.70;  351.800;  257.200; 1046.800;11.98075
1059.02;  375.350;  272.850; 1021.050;13.69955
1059.33;  389.150;  302.200; 1032.900;11.89955
1059.64;  345.400;  256.850;  966.800;12.47271
1059.96;  345.450;  262.850;  968.750;11.70138
1060.27;  333.850;  243.550;  981.950;12.22914
1060.58;  355.800;  266.450;  976.550;12.58273
1060.90;  349.050;  262.350;  973.000;12.20010
1061.21;  362.450;  261.900;  974.350;14.11327
1061.52;  324.700;  269.350;  940.700; 8.24458
1061.84;  336.800;  253.750;  959.750;11.76345
1062.15;  346.800;  270.150;  966.100;11.01372
1062.46;  357.850;  269.400;  951.450;12.96826
1062.78;  352.600;  257.200;  944.550;13.87939
1063.09;  328.500;  263.400;  951.500; 9.46083
1063.40;  316.100;  250.250;  896.150;10.19508
1063.71;  363.550;  281.700;  956.250;12.13401
1064.03;  345.200;  262.650;  923.700;12.48771
1064.34;  335.150;  258.050;  912.850;11.77459
1064.65;  325.850;  256.650;  884.950;11.01385
1064.97;  346.000;  259.950;  895.050;13.54905
1065.28;  328.550;  255.900;  898.750;11.30124
1065.59;  369.550;  265.150;  905.100;16.31377
1065.90;  350.450;  268.850;  882.200;13.30399
1066.22;  338.100;  245.550;  872.450;14.76312
1066.53;  357.700;  281.150;  903.500;12.30016
1066.84;  323.700;  239.600;  863.300;13.48405
1067.16;  336.700;  263.050;  876.250;12.01077
1067.47;  354.000;  277.800;  900.950;12.22820
1067.78;  326.100;  268.400;  885.550; 9.34943
1068.09;  342.700;  266.350;  870.400;12.63968
1068.41;  311.100;  250.200;  861.050; 9.96972
1068.72;  337.550;  260.400;  831.050;13.51967
1069.03;  331.450;  268.950;  849.150;10.77215
1069.35;  321.850;  249.750;  826.050;12.51085
1069.66;  332.200;  249.450;  805.700;14.87641
1069.97;  313.000;  236.250;  826.800;12.99636
1070.28;  319.450;  253.650;  811.600;11.79318
1070.60;  317.150;  257.600;  817.500;10.63583
1070.91;  308.500;  235.450;  815.900;12.58506
1071.22;  329.850;  260.700;  840.400;11.92858
1071.53;  341.800;  292.050;  844.400; 9.00697
1071.85;  341.200;  258.500;  840.550;14.20840
1072.16;  299.100;  242.850;  795.400;10.18007
1072.47;  334.300;  261.500;  818.350;13.07354
1072.78;  322.750;  245.500;  786.450;14.28043
1073.10;  310.050;  240.450;  785.600;12.76713
1073.41;  329.250;  269.400;  803.200;11.21207
1073.72;  322.050;  261.450;  766.600;11.99643
1074.03;  321.300;  248.800;  762.400;14.11604
1074.35;  318.300;  251.050;  773.050;12.88314
1074.66;  333.200;  277.200;  770.250;11.35787
1074.97;  309.700;  264.000;  772.950; 8.97927
1075.28;  327.300;  262.000;  753.500;13.28586
1075.60;  311.850;  260.700;  761.600;10.21162
1075.91;  321.150;  253.100;  752.350;13.63044
1076.22;  352.250;  277.650;  766.800;15.25095
1076.53;  317.050;  265.450;  738.550;10.90678
1076.85;  316.750;  273.100;  724.650; 9.66670
1077.16;  274.200;  239.700;  703.550; 7.43775
1077.47;  306.650;  252.750;  739.200;11.08027
1077.78;  310.700;  246.400;  729.800;13.30162
1078.09;  298.900;  258.350;  747.900; 8.28311
1078.41;  319.950;  246.050;  736.400;15.07087
1078.72;  352.300;  286.850;  768.750;13.58165
1079.03;  295.150;  256.250;  716.100; 8.45928
1079.34;  295.400;  263.650;  731.050; 6.79290
1079.66;  332.150;  276.200;  738.500;12.10253
1079.97;  315.150;  286.000;  752.600; 6.24732
1080.28;  292.950;  251.500;  701.550; 9.21009
1080.59;  334.000;  267.850;  705.850;15.10274
1080.90;  324.150;  272.250;  729.100;11.36040
1081.22;  325.550;  267.550;  714.850;12.96669
1081.53;  321.150;  290.050;  720.450; 7.22584
1081.84;  319.100;  263.800;  721.150;12.09140
1082.15;  301.000;  257.150;  681.650;10.32980
1082.46;  297.350;  239.500;  686.850;12.93171
1082.78;  303.550;  257.900;  701.900;10.28153
1083.09;  303.350;  249.550;  696.600;12.03445
1083.40;  272.900;  232.650;  650.150; 9.64072
1083.71;  304.200;  259.400;  681.300;10.61863
1084.02;  294.850;  259.950;  672.250; 8.46471
1084.34;  305.600;  262.400;  679.650;10.35351
1084.65;  297.750;  255.700;  662.450;10.33805
1084.96;  329.800;  267.950;  697.450;14.40046
1085.27;  298.600;  255.300;  672.900;10.36877
1085.58;  266.200;  237.750;  662.350; 6.70043
1085.89;  297.350;  253.900;  657.800;10.75762
1086.21;  329.350;  293.700;  684.950; 9.11182
1086.52;  258.250;  246.550;  669.050; 2.76923
1086.83;  268.900;  252.650;  644.700; 4.14488
1087.14;  267.150;  240.350;  639.800; 6.70922
1087.45;  287.650;  248.550;  655.150; 9.61633
1087.77;  277.200;  258.650;  648.600; 4.75703
1088.08;  304.000;  280.750;  658.400; 6.15649
1088.39;  285.350;  251.700;  618.900; 9.16395
1088.70;  310.950;  279.250;  650.750; 8.53298
1089.01;  316.650;  281.400;  649.700; 9.57100
1089.32;  321.600;  289.550;  657.700; 8.70570
1089.64;  286.450;  249.600;  613.950;10.11390
1089.95;  295.450;  268.500;  631.350; 7.42732
1090.26;  282.150;  259.050;  611.600; 6.55226
1090.57;  279.150;  251.500;  616.300; 7.57949
1090.88;  293.000;  258.500;  630.350; 9.27794
1091.19;  306.900;  281.350;  646.000; 7.00672
1091.50;  288.850;  262.100;  592.650; 8.09257
1091.82;  284.650;  267.200;  610.000; 5.09043
1092.13;  257.500;  245.800;  595.450; 3.34620
1092.44;  287.650;  236.750;  597.100;14.12516
1092.75;  275.650;  256.650;  590.650; 5.68862
1093.06;  294.150;  282.200;  611.350; 3.63056
1093.37;  276.350;  258.600;  580.300; 5.51756
1093.68;  279.450;  270.950;  600.200; 2.58162
1094.00;  271.600;  236.650;  562.850;10.71429
1094.31;  278.300;  278.500;  594.200;-0.06336
1094.62;  261.200;  245.500;  564.800; 4.91701
1094.93;  266.350;  257.800;  559.600; 2.83301
1095.24;  270.700;  255.050;  545.050; 5.39656
1095.55;  277.150;  251.500;  544.750; 8.74680
1095.86;  284.050;  272.750;  554.000; 4.01777
1096.18;  278.450;  257.050;  557.400; 7.12503
1096.49;  270.800;  254.250;  550.500; 5.58649
1096.80;  281.300;  264.100;  562.150; 5.77084
1097.11;  256.850;  273.300;  540.900;-6.14723
1097.42;  295.700;  279.300;  571.550; 5.61164
1097.73;  268.850;  253.900;  529.200; 5.43044
1098.04;  274.350;  250.300;  526.600; 8.70431
1098.35;  262.800;  278.300;  536.650;-5.99961
1098.67;  293.350;  269.100;  551.450; 8.58863
1098.98;  248.100;  256.550;  519.250;-3.21659
1099.29;  277.200;  278.550;  538.350;-0.51962
1099.60;  248.600;  246.350;  517.850; 0.82873
1099.91;  294.350;  290.900;  557.600; 1.29359

