#Wavelength	n	k
0.2005	1.580342702	0
0.2012	1.57997535	0
0.202	1.579607997	0
0.2028	1.579240645	0
0.2036	1.578873292	0
0.2044	1.57850594	0
0.2052	1.578138587	0
0.206	1.577771235	0
0.2068	1.577403882	0
0.2076	1.57703653	0
0.2084	1.576669177	0
0.2092	1.576301825	0
0.21	1.575934472	0
0.2108	1.57556712	0
0.2116	1.575199767	0
0.2124	1.574832415	0
0.2132	1.574465063	0
0.214	1.57409771	0
0.2148	1.573730358	0
0.2156	1.573363005	0
0.2164	1.572995653	0
0.2171	1.5726283	0
0.2179	1.572260948	0
0.2187	1.571893595	0
0.2195	1.571526243	0
0.2203	1.57115889	0
0.2211	1.570791538	0
0.2219	1.570424185	0
0.2227	1.570056833	0
0.2235	1.56968948	0
0.2243	1.569322128	0
0.2251	1.568954775	0
0.2259	1.568587423	0
0.2267	1.56822007	0
0.2275	1.567852718	0
0.2283	1.567485365	0
0.2291	1.567118013	0
0.2299	1.566750661	0
0.2307	1.566383308	0
0.2315	1.566015956	0
0.2323	1.565648603	0
0.233	1.565281251	0
0.2338	1.564913898	0
0.2346	1.564546546	0
0.2354	1.564179193	0
0.2362	1.563811841	0
0.237	1.563444488	0
0.2378	1.563077136	0
0.2386	1.562709783	0
0.2394	1.562342431	0
0.2402	1.561975078	0
0.241	1.561607726	0
0.2418	1.561240373	0
0.2426	1.560873021	0
0.2434	1.560505668	0
0.2442	1.560138316	0
0.245	1.559770963	0
0.2458	1.559403611	0
0.2466	1.559036258	0
0.2474	1.558668906	0
0.2482	1.558301554	0
0.2489	1.557934201	0
0.2497	1.557566849	0
0.2505	1.557199496	0
0.2513	1.556832144	0
0.2521	1.556464791	0
0.2529	1.556097439	0
0.2537	1.555730086	0
0.2545	1.555362734	0
0.2553	1.554995381	0
0.2561	1.554628029	0
0.2569	1.554260676	0
0.2577	1.553893324	0
0.2585	1.553525971	0
0.2593	1.553158619	0
0.2601	1.552791266	0
0.2609	1.552423914	0
0.2617	1.552056561	0
0.2625	1.551689209	0
0.2633	1.551321856	0
0.2641	1.550954504	0
0.2648	1.550587152	0
0.2656	1.550219799	0
0.2664	1.549852447	0
0.2672	1.549485094	0
0.268	1.549117742	0
0.2688	1.548750389	0
0.2696	1.548383037	0
0.2704	1.548015684	0
0.2712	1.547648332	0
0.272	1.547280979	0
0.2728	1.546913627	0
0.2736	1.546546274	0
0.2744	1.546178922	0
0.2752	1.545811569	0
0.276	1.545444217	0
0.2768	1.545076864	0
0.2776	1.544709512	0
0.2784	1.544342159	0
0.2792	1.543974807	0
0.28	1.543607454	0
0.2807	1.543240102	0
0.2815	1.542872749	0
0.2823	1.542505397	0
0.2831	1.542138045	0
0.2839	1.541770692	0
0.2847	1.54140334	0
0.2855	1.541035987	0
0.2863	1.540668635	0
0.2871	1.540301282	0
0.2879	1.53993393	0
0.2887	1.539566577	0
0.2895	1.539199225	0
0.2903	1.538831872	0
0.2911	1.53846452	0
0.2919	1.538097167	0
0.2927	1.537729815	0
0.2935	1.537362462	0
0.2943	1.53699511	0
0.2951	1.536627757	0
0.2959	1.536260405	0
0.2967	1.535893052	0
0.2974	1.5355257	0
0.2982	1.535158347	0
0.299	1.534790995	0
0.2998	1.534423642	0
0.3006	1.53405629	0
0.3014	1.533688938	0
0.3022	1.533321585	0
0.303	1.532954233	0
0.3038	1.53258688	0
0.3046	1.532219528	0
0.3054	1.531852175	0
0.3062	1.531484823	0
0.307	1.53111747	0
0.3078	1.530750118	0
0.3086	1.530382765	0
0.3094	1.530015413	0
0.3102	1.52964806	0
0.311	1.529280708	0
0.3118	1.528913355	0
0.3126	1.528546003	0
0.3133	1.528193456	0
0.3141	1.52786616	0
0.3149	1.527538863	0
0.3157	1.527211567	0
0.3165	1.526884271	0
0.3173	1.526556974	0
0.3181	1.526229678	0
0.3189	1.525902382	0
0.3197	1.525575085	0
0.3205	1.525247789	0
0.3213	1.524920492	0
0.3221	1.524593196	0
0.3229	1.5242659	0
0.3237	1.523938603	0
0.3245	1.523611307	0
0.3253	1.523290724	0
0.3261	1.522997865	0
0.3269	1.522705006	0
0.3277	1.522412147	0
0.3285	1.522119288	0
0.3292	1.521826429	0
0.33	1.52153357	0
0.3308	1.521240711	0
0.3316	1.520947852	0
0.3324	1.520654993	0
0.3332	1.520362134	0
0.334	1.520069275	0
0.3348	1.519776416	0
0.3356	1.519483557	0
0.3364	1.519190698	0
0.3372	1.518898441	0
0.338	1.518635353	0
0.3388	1.518372264	0
0.3396	1.518109175	0
0.3404	1.517846086	0
0.3412	1.517582998	0
0.342	1.517319909	0
0.3428	1.51705682	0
0.3436	1.516793731	0
0.3444	1.516530643	0
0.3451	1.516267554	0
0.3459	1.516004465	0
0.3467	1.515741376	0
0.3475	1.515478287	0
0.3483	1.515215199	0
0.3491	1.51495211	0
0.3499	1.514710894	0
0.3507	1.514473673	0
0.3515	1.514236452	0
0.3523	1.513999231	0
0.3531	1.51376201	0
0.3539	1.51352479	0
0.3547	1.513287569	0
0.3555	1.513050348	0
0.3563	1.512813127	0
0.3571	1.512575906	0
0.3579	1.512338685	0
0.3587	1.512101464	0
0.3595	1.511864243	0
0.3603	1.511627022	0
0.361	1.511389801	0
0.3618	1.511167732	0
0.3626	1.510953095	0
0.3634	1.510738459	0
0.3642	1.510523822	0
0.365	1.510309186	0
0.3658	1.51009455	0
0.3666	1.509879913	0
0.3674	1.509665277	0
0.3682	1.50945064	0
0.369	1.509236004	0
0.3698	1.509021367	0
0.3706	1.508806731	0
0.3714	1.508592095	0
0.3722	1.508377458	0
0.373	1.508162822	0
0.3738	1.507958013	0
0.3746	1.507763183	0
0.3754	1.507568352	0
0.3762	1.507373522	0
0.3769	1.507178691	0
0.3777	1.506983861	0
0.3785	1.506789031	0
0.3793	1.5065942	0
0.3801	1.50639937	0
0.3809	1.506204539	0
0.3817	1.506009709	0
0.3825	1.505814879	0
0.3833	1.505620048	0
0.3841	1.505425218	0
0.3849	1.505230388	0
0.3857	1.505041165	0
0.3865	1.504863777	0
0.3873	1.504686388	0
0.3881	1.504509	0
0.3889	1.504331612	0
0.3897	1.504154223	0
0.3905	1.503976835	0
0.3913	1.503799447	0
0.3921	1.503622058	0
0.3928	1.50344467	0
0.3936	1.503267282	0
0.3944	1.503089894	0
0.3952	1.502912505	0
0.396	1.502735117	0
0.3968	1.502557729	0
0.3976	1.502382604	0
0.3984	1.502220637	0
0.3992	1.502058669	0
0.4	1.501896701	0
0.4008	1.501734733	0
0.4016	1.501572766	0
0.4024	1.501410798	0
0.4032	1.50124883	0
0.404	1.501086862	0
0.4048	1.500924895	0
0.4056	1.500762927	0
0.4064	1.500600959	0
0.4072	1.500438991	0
0.408	1.500277024	0
0.4087	1.500115056	0
0.4095	1.499953088	0
0.4103	1.499804423	0
0.4111	1.499656139	0
0.4119	1.499507855	0
0.4127	1.49935957	0
0.4135	1.499211286	0
0.4143	1.499063002	0
0.4151	1.498914718	0
0.4159	1.498766434	0
0.4167	1.49861815	0
0.4175	1.498469866	0
0.4183	1.498321581	0
0.4191	1.498173297	0
0.4199	1.498025013	0
0.4207	1.497876729	0
0.4215	1.497728445	0
0.4223	1.497589878	0
0.4231	1.497453778	0
0.4239	1.497317678	0
0.4246	1.497181579	0
0.4254	1.497045479	0
0.4262	1.49690938	0
0.427	1.49677328	0
0.4278	1.496637181	0
0.4286	1.496501081	0
0.4294	1.496364981	0
0.4302	1.496228882	0
0.431	1.496092782	0
0.4318	1.495956683	0
0.4326	1.495820583	0
0.4334	1.495684484	0
0.4342	1.495555163	0
0.435	1.495429949	0
0.4358	1.495304735	0
0.4366	1.49517952	0
0.4374	1.495054306	0
0.4382	1.494929092	0
0.439	1.494803877	0
0.4398	1.494678663	0
0.4406	1.494553449	0
0.4413	1.494428234	0
0.4421	1.49430302	0
0.4429	1.494177806	0
0.4437	1.494052592	0
0.4445	1.493927377	0
0.4453	1.493802163	0
0.4461	1.49368132	0
0.4469	1.49356586	0
0.4477	1.493450401	0
0.4485	1.493334941	0
0.4493	1.493219481	0
0.4501	1.493104022	0
0.4509	1.492988562	0
0.4517	1.492873102	0
0.4525	1.492757643	0
0.4533	1.492642183	0
0.4541	1.492526724	0
0.4549	1.492411264	0
0.4557	1.492295804	0
0.4565	1.492180345	0
0.4572	1.492064885	0
0.458	1.491951823	0
0.4588	1.49184513	0
0.4596	1.491738438	0
0.4604	1.491631745	0
0.4612	1.491525053	0
0.462	1.49141836	0
0.4628	1.491311668	0
0.4636	1.491204975	0
0.4644	1.491098283	0
0.4652	1.49099159	0
0.466	1.490884898	0
0.4668	1.490778205	0
0.4676	1.490671513	0
0.4684	1.49056482	0
0.4692	1.490458128	0
0.47	1.490352215	0
0.4708	1.490253424	0
0.4716	1.490154633	0
0.4724	1.490055842	0
0.4731	1.489957051	0
0.4739	1.48985826	0
0.4747	1.489759469	0
0.4755	1.489660678	0
0.4763	1.489561887	0
0.4771	1.489463096	0
0.4779	1.489364305	0
0.4787	1.489265514	0
0.4795	1.489166723	0
0.4803	1.489067932	0
0.4811	1.488969141	0
0.4819	1.48887035	0
0.4827	1.488778157	0
0.4835	1.488686506	0
0.4843	1.488594855	0
0.4851	1.488503204	0
0.4859	1.488411553	0
0.4867	1.488319903	0
0.4875	1.488228252	0
0.4883	1.488136601	0
0.489	1.48804495	0
0.4898	1.487953299	0
0.4906	1.487861648	0
0.4914	1.487769997	0
0.4922	1.487678346	0
0.493	1.487586695	0
0.4938	1.487495044	0
0.4946	1.48740824	0
0.4954	1.487323058	0
0.4962	1.487237875	0
0.497	1.487152692	0
0.4978	1.48706751	0
0.4986	1.486982327	0
0.4994	1.486897144	0
0.5002	1.486811962	0
0.501	1.486726779	0
0.5018	1.486641596	0
0.5026	1.486556414	0
0.5034	1.486471231	0
0.5042	1.486386048	0
0.5049	1.486300866	0
0.5057	1.486215683	0
0.5065	1.486133876	0
0.5073	1.486054567	0
0.5081	1.485975257	0
0.5089	1.485895948	0
0.5097	1.485816639	0
0.5105	1.48573733	0
0.5113	1.485658021	0
0.5121	1.485578712	0
0.5129	1.485499403	0
0.5137	1.485420094	0
0.5145	1.485340785	0
0.5153	1.485261476	0
0.5161	1.485182167	0
0.5169	1.485102858	0
0.5177	1.485023548	0
0.5185	1.484946378	0
0.5193	1.484872414	0
0.5201	1.484798451	0
0.5208	1.484724488	0
0.5216	1.484650524	0
0.5224	1.484576561	0
0.5232	1.484502598	0
0.524	1.484428634	0
0.5248	1.484354671	0
0.5256	1.484280708	0
0.5264	1.484206744	0
0.5272	1.484132781	0
0.528	1.484058818	0
0.5288	1.483984854	0
0.5296	1.483910891	0
0.5304	1.483838026	0
0.5312	1.483768939	0
0.532	1.483699851	0
0.5328	1.483630764	0
0.5336	1.483561676	0
0.5344	1.483492589	0
0.5352	1.483423502	0
0.536	1.483354414	0
0.5367	1.483285327	0
0.5375	1.483216239	0
0.5383	1.483147152	0
0.5391	1.483078064	0
0.5399	1.483008977	0
0.5407	1.482939889	0
0.5415	1.482870802	0
0.5423	1.48280194	0
0.5431	1.482737309	0
0.5439	1.482672678	0
0.5447	1.482608047	0
0.5455	1.482543417	0
0.5463	1.482478786	0
0.5471	1.482414155	0
0.5479	1.482349524	0
0.5487	1.482284893	0
0.5495	1.482220262	0
0.5503	1.482155631	0
0.5511	1.482091	0
0.5519	1.482026369	0
0.5526	1.481961738	0
0.5534	1.481897108	0
0.5542	1.481832477	0
0.555	1.481771421	0
0.5558	1.481710871	0
0.5566	1.481650322	0
0.5574	1.481589772	0
0.5582	1.481529222	0
0.559	1.481468673	0
0.5598	1.481408123	0
0.5606	1.481347574	0
0.5614	1.481287024	0
0.5622	1.481226475	0
0.563	1.481165925	0
0.5638	1.481105375	0
0.5646	1.481044826	0
0.5654	1.480984276	0
0.5662	1.480923727	0
0.567	1.480865803	0
0.5678	1.480808999	0
0.5685	1.480752194	0
0.5693	1.480695389	0
0.5701	1.480638584	0
0.5709	1.480581779	0
0.5717	1.480524975	0
0.5725	1.48046817	0
0.5733	1.480411365	0
0.5741	1.48035456	0
0.5749	1.480297755	0
0.5757	1.480240951	0
0.5765	1.480184146	0
0.5773	1.480127341	0
0.5781	1.480070536	0
0.5789	1.480015544	0
0.5797	1.479962182	0
0.5805	1.479908819	0
0.5813	1.479855456	0
0.5821	1.479802094	0
0.5829	1.479748731	0
0.5837	1.479695369	0
0.5845	1.479642006	0
0.5852	1.479588644	0
0.586	1.479535281	0
0.5868	1.479481919	0
0.5876	1.479428556	0
0.5884	1.479375193	0
0.5892	1.479321831	0
0.59	1.479268468	0
0.5908	1.479216221	0
0.5916	1.479166028	0
0.5924	1.479115835	0
0.5932	1.479065642	0
0.594	1.479015449	0
0.5948	1.478965257	0
0.5956	1.478915064	0
0.5964	1.478864871	0
0.5972	1.478814678	0
0.598	1.478764485	0
0.5988	1.478714292	0
0.5996	1.478664099	0
0.6004	1.478613906	0
0.6011	1.478563713	0
0.6019	1.47851352	0
0.6027	1.478463845	0
0.6035	1.478416576	0
0.6043	1.478369306	0
0.6051	1.478322037	0
0.6059	1.478274768	0
0.6067	1.478227498	0
0.6075	1.478180229	0
0.6083	1.478132959	0
0.6091	1.47808569	0
0.6099	1.47803842	0
0.6107	1.477991151	0
0.6115	1.477943881	0
0.6123	1.477896612	0
0.6131	1.477849343	0
0.6139	1.477802073	0
0.6147	1.47775481	0
0.6155	1.477710242	0
0.6163	1.477665673	0
0.617	1.477621104	0
0.6178	1.477576536	0
0.6186	1.477531967	0
0.6194	1.477487398	0
0.6202	1.47744283	0
0.621	1.477398261	0
0.6218	1.477353692	0
0.6226	1.477309124	0
0.6234	1.477264555	0
0.6242	1.477219986	0
0.625	1.477175418	0
0.6258	1.477130849	0
0.6266	1.47708628	0
0.6274	1.47704378	0
0.6282	1.477001711	0
0.629	1.476959641	0
0.6298	1.476917571	0
0.6306	1.476875501	0
0.6314	1.476833431	0
0.6322	1.476791362	0
0.6329	1.476749292	0
0.6337	1.476707222	0
0.6345	1.476665152	0
0.6353	1.476623082	0
0.6361	1.476581013	0
0.6369	1.476538943	0
0.6377	1.476496873	0
0.6385	1.476454803	0
0.6393	1.476414246	0
0.6401	1.476374492	0
0.6409	1.476334737	0
0.6417	1.476294983	0
0.6425	1.476255229	0
0.6433	1.476215474	0
0.6441	1.47617572	0
0.6449	1.476135966	0
0.6457	1.476096212	0
0.6465	1.476056457	0
0.6473	1.476016703	0
0.6481	1.475976949	0
0.6488	1.475937194	0
0.6496	1.47589744	0
0.6504	1.475857686	0
0.6512	1.47581896	0
0.652	1.475781354	0
0.6528	1.475743748	0
0.6536	1.475706143	0
0.6544	1.475668537	0
0.6552	1.475630931	0
0.656	1.475593326	0
0.6568	1.47555572	0
0.6576	1.475518114	0
0.6584	1.475480509	0
0.6592	1.475442903	0
0.66	1.475405297	0
0.6608	1.475367692	0
0.6616	1.475330086	0
0.6624	1.475292481	0
0.6632	1.475255481	0
0.664	1.475219872	0
0.6647	1.475184263	0
0.6655	1.475148654	0
0.6663	1.475113045	0
0.6671	1.475077436	0
0.6679	1.475041827	0
0.6687	1.475006218	0
0.6695	1.474970609	0
0.6703	1.474934999	0
0.6711	1.47489939	0
0.6719	1.474863781	0
0.6727	1.474828172	0
0.6735	1.474792563	0
0.6743	1.474756954	0
0.6751	1.474721585	0
0.6759	1.474687833	0
0.6767	1.474654082	0
0.6775	1.47462033	0
0.6783	1.474586579	0
0.6791	1.474552828	0
0.6799	1.474519076	0
0.6806	1.474485325	0
0.6814	1.474451573	0
0.6822	1.474417822	0
0.683	1.47438407	0
0.6838	1.474350319	0
0.6846	1.474316568	0
0.6854	1.474282816	0
0.6862	1.474249065	0
0.687	1.474215313	0
0.6878	1.474183214	0
0.6886	1.474151193	0
0.6894	1.474119172	0
0.6902	1.474087151	0
0.691	1.474055131	0
0.6918	1.47402311	0
0.6926	1.473991089	0
0.6934	1.473959068	0
0.6942	1.473927048	0
0.695	1.473895027	0
0.6958	1.473863006	0
0.6965	1.473830985	0
0.6973	1.473798964	0
0.6981	1.473766944	0
0.6989	1.473734923	0
0.6997	1.473704161	0
0.7005	1.473673755	0
0.7013	1.473643348	0
0.7021	1.473612942	0
0.7029	1.473582535	0
0.7037	1.473552129	0
0.7045	1.473521722	0
0.7053	1.473491316	0
0.7061	1.47346091	0
0.7069	1.473430503	0
0.7077	1.473400097	0
0.7085	1.47336969	0
0.7093	1.473339284	0
0.7101	1.473308877	0
0.7109	1.473278471	0
0.7117	1.473248977	0
0.7124	1.473220078	0
0.7132	1.473191179	0
0.714	1.47316228	0
0.7148	1.473133382	0
0.7156	1.473104483	0
0.7164	1.473075584	0
0.7172	1.473046685	0
0.718	1.473017786	0
0.7188	1.472988887	0
0.7196	1.472959989	0
0.7204	1.47293109	0
0.7212	1.472902191	0
0.722	1.472873292	0
0.7228	1.472844393	0
0.7236	1.472816101	0
0.7244	1.472788612	0
0.7252	1.472761123	0
0.726	1.472733634	0
0.7268	1.472706144	0
0.7276	1.472678655	0
0.7283	1.472651166	0
0.7291	1.472623677	0
0.7299	1.472596187	0
0.7307	1.472568698	0
0.7315	1.472541209	0
0.7323	1.47251372	0
0.7331	1.47248623	0
0.7339	1.472458741	0
0.7347	1.472431252	0
0.7355	1.4724041	0
0.7363	1.47237793	0
0.7371	1.47235176	0
0.7379	1.47232559	0
0.7387	1.472299421	0
0.7395	1.472273251	0
0.7403	1.472247081	0
0.7411	1.472220911	0
0.7419	1.472194741	0
0.7427	1.472168571	0
0.7435	1.472142401	0
0.7443	1.472116231	0
0.745	1.472090062	0
0.7458	1.472063892	0
0.7466	1.472037722	0
0.7474	1.472011652	0
0.7482	1.471986719	0
0.749	1.471961785	0
0.7498	1.471936851	0
0.7506	1.471911918	0
0.7514	1.471886984	0
0.7522	1.471862051	0
0.753	1.471837117	0
0.7538	1.471812183	0
0.7546	1.47178725	0
0.7554	1.471762316	0
0.7562	1.471737383	0
0.757	1.471712449	0
0.7578	1.471687515	0
0.7586	1.471662582	0
0.7594	1.471637648	0
0.7602	1.471613765	0
0.7609	1.471589992	0
0.7617	1.471566218	0
0.7625	1.471542444	0
0.7633	1.47151867	0
0.7641	1.471494896	0
0.7649	1.471471122	0
0.7657	1.471447348	0
0.7665	1.471423574	0
0.7673	1.4713998	0
0.7681	1.471376026	0
0.7689	1.471352252	0
0.7697	1.471328478	0
0.7705	1.471304704	0
0.7713	1.47128093	0
0.7721	1.471257952	0
0.7729	1.471235267	0
0.7737	1.471212582	0
0.7745	1.471189897	0
0.7753	1.471167211	0
0.7761	1.471144526	0
0.7768	1.471121841	0
0.7776	1.471099156	0
0.7784	1.471076471	0
0.7792	1.471053785	0
0.78	1.4710311	0
0.7808	1.471008415	0
0.7816	1.47098573	0
0.7824	1.470963045	0
0.7832	1.470940359	0
0.784	1.470918244	0
0.7848	1.470896582	0
0.7856	1.47087492	0
0.7864	1.470853259	0
0.7872	1.470831597	0
0.788	1.470809935	0
0.7888	1.470788273	0
0.7896	1.470766611	0
0.7904	1.470744949	0
0.7912	1.470723287	0
0.792	1.470701625	0
0.7927	1.470679963	0
0.7935	1.470658302	0
0.7943	1.47063664	0
0.7951	1.470614978	0
0.7959	1.470593684	0
0.7967	1.470572985	0
0.7975	1.470552286	0
0.7983	1.470531586	0
0.7991	1.470510887	0
0.7999	1.470490188	0
0.8007	1.470469489	0
0.8015	1.470448789	0
0.8023	1.47042809	0
0.8031	1.470407391	0
0.8039	1.470386692	0
0.8047	1.470365993	0
0.8055	1.470345293	0
0.8063	1.470324594	0
0.8071	1.470303895	0
0.8079	1.470283384	0
0.8086	1.470263591	0
0.8094	1.470243799	0
0.8102	1.470224006	0
0.811	1.470204213	0
0.8118	1.47018442	0
0.8126	1.470164628	0
0.8134	1.470144835	0
0.8142	1.470125042	0
0.815	1.470105249	0
0.8158	1.470085457	0
0.8166	1.470065664	0
0.8174	1.470045871	0
0.8182	1.470026078	0
0.819	1.470006286	0
0.8198	1.469986521	0
0.8206	1.469967583	0
0.8214	1.469948644	0
0.8222	1.469929706	0
0.823	1.469910767	0
0.8238	1.469891829	0
0.8245	1.46987289	0
0.8253	1.469853952	0
0.8261	1.469835014	0
0.8269	1.469816075	0
0.8277	1.469797137	0
0.8285	1.469778198	0
0.8293	1.46975926	0
0.8301	1.469740321	0
0.8309	1.469721383	0
0.8317	1.469702445	0
0.8325	1.469684198	0
0.8333	1.469666065	0
0.8341	1.469647933	0
0.8349	1.4696298	0
0.8357	1.469611667	0
0.8365	1.469593535	0
0.8373	1.469575402	0
0.8381	1.46955727	0
0.8389	1.469539137	0
0.8397	1.469521004	0
0.8404	1.469502872	0
0.8412	1.469484739	0
0.842	1.469466607	0
0.8428	1.469448474	0
0.8436	1.469430341	0
0.8444	1.469412729	0
0.8452	1.469395357	0
0.846	1.469377985	0
0.8468	1.469360613	0
0.8476	1.469343241	0
0.8484	1.46932587	0
0.8492	1.469308498	0
0.85	1.469291126	0
0.8508	1.469273754	0
0.8516	1.469256382	0
0.8524	1.46923901	0
0.8532	1.469221639	0
0.854	1.469204267	0
0.8548	1.469186895	0
0.8556	1.469169523	0
0.8563	1.469152517	0
0.8571	1.469135864	0
0.8579	1.469119211	0
0.8587	1.469102558	0
0.8595	1.469085905	0
0.8603	1.469069252	0
0.8611	1.469052599	0
0.8619	1.469035946	0
0.8627	1.469019292	0
0.8635	1.469002639	0
0.8643	1.468985986	0
0.8651	1.468969333	0
0.8659	1.46895268	0
0.8667	1.468936027	0
0.8675	1.468919374	0
0.8683	1.468902948	0
0.8691	1.468886975	0
0.8699	1.468871001	0
0.8707	1.468855028	0
0.8715	1.468839055	0
0.8722	1.468823081	0
0.873	1.468807108	0
0.8738	1.468791135	0
0.8746	1.468775161	0
0.8754	1.468759188	0
0.8762	1.468743214	0
0.877	1.468727241	0
0.8778	1.468711268	0
0.8786	1.468695294	0
0.8794	1.468679321	0
0.8802	1.46866345	0
0.881	1.46864812	0
0.8818	1.46863279	0
0.8826	1.46861746	0
0.8834	1.468602129	0
0.8842	1.468586799	0
0.885	1.468571469	0
0.8858	1.468556139	0
0.8866	1.468540809	0
0.8874	1.468525478	0
0.8882	1.468510148	0
0.8889	1.468494818	0
0.8897	1.468479488	0
0.8905	1.468464158	0
0.8913	1.468448827	0
0.8921	1.468433497	0
0.8929	1.468418767	0
0.8937	1.468404046	0
0.8945	1.468389325	0
0.8953	1.468374604	0
0.8961	1.468359883	0
0.8969	1.468345161	0
0.8977	1.46833044	0
0.8985	1.468315719	0
0.8993	1.468300998	0
0.9001	1.468286277	0
0.9009	1.468271556	0
0.9017	1.468256835	0
0.9025	1.468242114	0
0.9033	1.468227393	0
0.9041	1.468212672	0
0.9048	1.468198418	0
0.9056	1.468184274	0
0.9064	1.468170131	0
0.9072	1.468155987	0
0.908	1.468141843	0
0.9088	1.468127699	0
0.9096	1.468113555	0
0.9104	1.468099412	0
0.9112	1.468085268	0
0.912	1.468071124	0
0.9128	1.46805698	0
0.9136	1.468042836	0
0.9144	1.468028692	0
0.9152	1.468014549	0
0.916	1.468000405	0
0.9168	1.467986609	0
0.9176	1.467973012	0
0.9184	1.467959416	0
0.9192	1.46794582	0
0.92	1.467932223	0
0.9207	1.467918627	0
0.9215	1.467905031	0
0.9223	1.467891434	0
0.9231	1.467877838	0
0.9239	1.467864242	0
0.9247	1.467850645	0
0.9255	1.467837049	0
0.9263	1.467823453	0
0.9271	1.467809856	0
0.9279	1.46779626	0
0.9287	1.467782903	0
0.9295	1.467769826	0
0.9303	1.467756749	0
0.9311	1.467743673	0
0.9319	1.467730596	0
0.9327	1.467717519	0
0.9335	1.467704442	0
0.9343	1.467691366	0
0.9351	1.467678289	0
0.9359	1.467665212	0
0.9366	1.467652135	0
0.9374	1.467639059	0
0.9382	1.467625982	0
0.939	1.467612905	0
0.9398	1.467599828	0
0.9406	1.467586893	0
0.9414	1.467574309	0
0.9422	1.467561726	0
0.943	1.467549143	0
0.9438	1.467536559	0
0.9446	1.467523976	0
0.9454	1.467511393	0
0.9462	1.467498809	0
0.947	1.467486226	0
0.9478	1.467473643	0
0.9486	1.467461059	0
0.9494	1.467448476	0
0.9502	1.467435893	0
0.951	1.467423309	0
0.9518	1.467410726	0
0.9525	1.467398195	0
0.9533	1.46738608	0
0.9541	1.467373966	0
0.9549	1.467361852	0
0.9557	1.467349737	0
0.9565	1.467337623	0
0.9573	1.467325508	0
0.9581	1.467313394	0
0.9589	1.467301279	0
0.9597	1.467289165	0
0.9605	1.467277051	0
0.9613	1.467264936	0
0.9621	1.467252822	0
0.9629	1.467240707	0
0.9637	1.467228593	0
0.9645	1.467216479	0
0.9653	1.467204782	0
0.9661	1.467193113	0
0.9669	1.467181445	0
0.9677	1.467169776	0
0.9684	1.467158108	0
0.9692	1.467146439	0
0.97	1.467134771	0
0.9708	1.467123102	0
0.9716	1.467111434	0
0.9724	1.467099765	0
0.9732	1.467088097	0
0.974	1.467076428	0
0.9748	1.46706476	0
0.9756	1.467053091	0
0.9764	1.467041423	0
0.9772	1.467030077	0
0.978	1.467018833	0
0.9788	1.467007589	0
0.9796	1.466996345	0
0.9804	1.466985101	0
0.9812	1.466973856	0
0.982	1.466962612	0
0.9828	1.466951368	0
0.9836	1.466940124	0
0.9843	1.46692888	0
0.9851	1.466917635	0
0.9859	1.466906391	0
0.9867	1.466895147	0
0.9875	1.466883903	0
0.9883	1.466872658	0
0.9891	1.466861651	0
0.9899	1.466850811	0
0.9907	1.466839971	0
0.9915	1.466829131	0
0.9923	1.46681829	0
0.9931	1.46680745	0
0.9939	1.46679661	0
0.9947	1.46678577	0
