#Wavelength	n	k		
0.2005	1.55329	0.00618		
0.2012	1.55228	0.00614		
0.202	1.55128	0.00611		
0.2028	1.5503	0.00608		
0.2036	1.54933	0.00605		
0.2044	1.54838	0.00602		
0.2052	1.54744	0.00598		
0.206	1.54651	0.00595		
0.2068	1.5456	0.00592		
0.2076	1.5447	0.00589		
0.2084	1.54381	0.00586		
0.2092	1.54294	0.00583		
0.21	1.54208	0.0058		
0.2108	1.54123	0.00577		
0.2116	1.5404	0.00575		
0.2124	1.53957	0.00572		
0.2132	1.53876	0.00569		
0.214	1.53796	0.00566		
0.2148	1.53717	0.00563		
0.2156	1.5364	0.00561		
0.2164	1.53563	0.00558		
0.2171	1.53488	0.00555		
0.2179	1.53414	0.00553		
0.2187	1.53341	0.0055		
0.2195	1.53269	0.00547		
0.2203	1.53198	0.00545		
0.2211	1.53128	0.00542		
0.2219	1.53059	0.0054		
0.2227	1.52991	0.00537		
0.2235	1.52925	0.00535		
0.2243	1.52859	0.00532		
0.2251	1.52794	0.0053		
0.2259	1.5273	0.00527		
0.2267	1.52667	0.00525		
0.2275	1.52605	0.00522		
0.2283	1.52544	0.0052		
0.2291	1.52483	0.00518		
0.2299	1.52424	0.00515		
0.2307	1.52366	0.00513		
0.2315	1.52308	0.00511		
0.2323	1.52251	0.00509		
0.233	1.52195	0.00506		
0.2338	1.5214	0.00504		
0.2346	1.52085	0.00502		
0.2354	1.52031	0.005		
0.2362	1.51978	0.00498		
0.237	1.51926	0.00496		
0.2378	1.51875	0.00494		
0.2386	1.51824	0.00491		
0.2394	1.51774	0.00489		
0.2402	1.51724	0.00487		
0.241	1.51675	0.00485		
0.2418	1.51627	0.00483		
0.2426	1.51579	0.00481		
0.2434	1.51532	0.00479		
0.2442	1.51486	0.00477		
0.245	1.5144	0.00475		
0.2458	1.51395	0.00473		
0.2466	1.5135	0.00472		
0.2474	1.51306	0.0047		
0.2482	1.51262	0.00468		
0.2489	1.51219	0.00466		
0.2497	1.51176	0.00464		
0.2505	1.51133	0.00462		
0.2513	1.51092	0.0046		
0.2521	1.5105	0.00459		
0.2529	1.51009	0.00457		
0.2537	1.50969	0.00455		
0.2545	1.50929	0.00453		
0.2553	1.5089	0.00452		
0.2561	1.50851	0.0045		
0.2569	1.50812	0.00448		
0.2577	1.50774	0.00446		
0.2585	1.50736	0.00445		
0.2593	1.50699	0.00443		
0.2601	1.50662	0.00441		
0.2609	1.50626	0.0044		
0.2617	1.5059	0.00438		
0.2625	1.50554	0.00437		
0.2633	1.50519	0.00435		
0.2641	1.50484	0.00433		
0.2648	1.5045	0.00432		
0.2656	1.50416	0.0043		
0.2664	1.50383	0.00429		
0.2672	1.50349	0.00427		
0.268	1.50317	0.00426		
0.2688	1.50284	0.00424		
0.2696	1.50252	0.00423		
0.2704	1.50221	0.00421		
0.2712	1.50189	0.0042		
0.272	1.50158	0.00418		
0.2728	1.50128	0.00417		
0.2736	1.50097	0.00415		
0.2744	1.50068	0.00414		
0.2752	1.50038	0.00412		
0.276	1.50009	0.00411		
0.2768	1.4998	0.0041		
0.2776	1.49951	0.00408		
0.2784	1.49923	0.00407		
0.2792	1.49895	0.00405		
0.28	1.49867	0.00404		
0.2807	1.4984	0.00403		
0.2815	1.49813	0.00401		
0.2823	1.49786	0.004		
0.2831	1.4976	0.00399		
0.2839	1.49734	0.00397		
0.2847	1.49708	0.00396		
0.2855	1.49682	0.00395		
0.2863	1.49657	0.00394		
0.2871	1.49632	0.00392		
0.2879	1.49607	0.00391		
0.2887	1.49582	0.0039		
0.2895	1.49558	0.00389		
0.2903	1.49534	0.00387		
0.2911	1.4951	0.00386		
0.2919	1.49486	0.00385		
0.2927	1.49463	0.00384		
0.2935	1.4944	0.00382		
0.2943	1.49417	0.00381		
0.2951	1.49394	0.0038		
0.2959	1.49372	0.00379		
0.2967	1.49349	0.00378		
0.2974	1.49327	0.00377		
0.2982	1.49305	0.00375		
0.299	1.49283	0.00374		
0.2998	1.49262	0.00373		
0.3006	1.49241	0.00372		
0.3014	1.49219	0.00371		
0.3022	1.49198	0.0037		
0.303	1.49178	0.00369		
0.3038	1.49157	0.00367		
0.3046	1.49136	0.00366		
0.3054	1.49116	0.00365		
0.3062	1.49096	0.00364		
0.307	1.49076	0.00363		
0.3078	1.49056	0.00362		
0.3086	1.49036	0.00361		
0.3094	1.49017	0.0036		
0.3102	1.48997	0.00359		
0.311	1.48978	0.00358		
0.3118	1.48959	0.00357		
0.3126	1.4894	0.00356		
0.3133	1.48921	0.00355		
0.3141	1.48903	0.00354		
0.3149	1.48884	0.00353		
0.3157	1.48866	0.00352		
0.3165	1.48848	0.00351		
0.3173	1.4883	0.0035		
0.3181	1.48812	0.00349		
0.3189	1.48795	0.00348		
0.3197	1.48777	0.00347		
0.3205	1.4876	0.00346		
0.3213	1.48742	0.00345		
0.3221	1.48725	0.00344		
0.3229	1.48708	0.00343		
0.3237	1.48691	0.00342		
0.3245	1.48675	0.00341		
0.3253	1.48658	0.0034		
0.3261	1.48642	0.00339		
0.3269	1.48625	0.00338		
0.3277	1.48609	0.00337		
0.3285	1.48593	0.00336		
0.3292	1.48577	0.00335		
0.33	1.48562	0.00334		
0.3308	1.48546	0.00333		
0.3316	1.4853	0.00332		
0.3324	1.48515	0.00332		
0.3332	1.485	0.00331		
0.334	1.48485	0.0033		
0.3348	1.4847	0.00329		
0.3356	1.48455	0.00328		
0.3364	1.4844	0.00327		
0.3372	1.48425	0.00326		
0.338	1.48411	0.00325		
0.3388	1.48396	0.00324		
0.3396	1.48382	0.00324		
0.3404	1.48368	0.00323		
0.3412	1.48354	0.00322		
0.342	1.4834	0.00321		
0.3428	1.48326	0.0032		
0.3436	1.48312	0.00319		
0.3444	1.48299	0.00319		
0.3451	1.48285	0.00318		
0.3459	1.48272	0.00317		
0.3467	1.48259	0.00316		
0.3475	1.48245	0.00315		
0.3483	1.48232	0.00315		
0.3491	1.48219	0.00314		
0.3499	1.48206	0.00313		
0.3507	1.48194	0.00312		
0.3515	1.48181	0.00311		
0.3523	1.48168	0.00311		
0.3531	1.48156	0.0031		
0.3539	1.48144	0.00309		
0.3547	1.48131	0.00308		
0.3555	1.48119	0.00307		
0.3563	1.48107	0.00307		
0.3571	1.48095	0.00306		
0.3579	1.48083	0.00305		
0.3587	1.48071	0.00304		
0.3595	1.48059	0.00304		
0.3603	1.48048	0.00303		
0.361	1.48036	0.00302		
0.3618	1.48025	0.00301		
0.3626	1.48013	0.00301		
0.3634	1.48002	0.003		
0.3642	1.47991	0.00299		
0.365	1.47979	0.00299		
0.3658	1.47968	0.00298		
0.3666	1.47957	0.00297		
0.3674	1.47946	0.00296		
0.3682	1.47936	0.00296		
0.369	1.47925	0.00295		
0.3698	1.47914	0.00294		
0.3706	1.47903	0.00294		
0.3714	1.47893	0.00293		
0.3722	1.47882	0.00292		
0.373	1.47872	0.00292		
0.3738	1.47862	0.00291		
0.3746	1.47851	0.0029		
0.3754	1.47841	0.00289		
0.3762	1.47831	0.00289		
0.3769	1.47821	0.00288		
0.3777	1.47811	0.00287		
0.3785	1.47801	0.00287		
0.3793	1.47791	0.00286		
0.3801	1.47781	0.00285		
0.3809	1.47771	0.00285		
0.3817	1.47762	0.00284		
0.3825	1.47752	0.00284		
0.3833	1.47743	0.00283		
0.3841	1.47733	0.00282		
0.3849	1.47724	0.00282		
0.3857	1.47714	0.00281		
0.3865	1.47705	0.0028		
0.3873	1.47696	0.0028		
0.3881	1.47687	0.00279		
0.3889	1.47678	0.00278		
0.3897	1.47669	0.00278		
0.3905	1.4766	0.00277		
0.3913	1.47651	0.00277		
0.3921	1.47642	0.00276		
0.3928	1.47633	0.00275		
0.3936	1.47624	0.00275		
0.3944	1.47616	0.00274		
0.3952	1.47607	0.00274		
0.396	1.47599	0.00273		
0.3968	1.4759	0.00272		
0.3976	1.47582	0.00272		
0.3984	1.47573	0.00271		
0.3992	1.47565	0.00271		
0.4	1.47557	0.0027		
0.4008	1.47549	0.00269		
0.4016	1.47541	0.00269		
0.4024	1.47532	0.00268		
0.4032	1.47524	0.00268		
0.404	1.47516	0.00267		
0.4048	1.47508	0.00267		
0.4056	1.47501	0.00266		
0.4064	1.47493	0.00265		
0.4072	1.47485	0.00265		
0.408	1.47477	0.00264		
0.4087	1.4747	0.00264		
0.4095	1.47462	0.00263		
0.4103	1.47454	0.00263		
0.4111	1.47447	0.00262		
0.4119	1.4744	0.00261		
0.4127	1.47432	0.00261		
0.4135	1.47425	0.0026		
0.4143	1.47417	0.0026		
0.4151	1.4741	0.00259		
0.4159	1.47403	0.00259		
0.4167	1.47396	0.00258		
0.4175	1.47389	0.00258		
0.4183	1.47382	0.00257		
0.4191	1.47375	0.00257		
0.4199	1.47368	0.00256		
0.4207	1.47361	0.00256		
0.4215	1.47354	0.00255		
0.4223	1.47347	0.00255		
0.4231	1.4734	0.00254		
0.4239	1.47333	0.00254		
0.4246	1.47327	0.00253		
0.4254	1.4732	0.00253		
0.4262	1.47313	0.00252		
0.427	1.47307	0.00252		
0.4278	1.473	0.00251		
0.4286	1.47294	0.00251		
0.4294	1.47287	0.0025		
0.4302	1.47281	0.0025		
0.431	1.47274	0.00249		
0.4318	1.47268	0.00249		
0.4326	1.47262	0.00248		
0.4334	1.47255	0.00248		
0.4342	1.47249	0.00247		
0.435	1.47243	0.00247		
0.4358	1.47237	0.00246		
0.4366	1.47231	0.00246		
0.4374	1.47224	0.00245		
0.4382	1.47218	0.00245		
0.439	1.47212	0.00244		
0.4398	1.47206	0.00244		
0.4406	1.472	0.00243		
0.4413	1.47194	0.00243		
0.4421	1.47189	0.00242		
0.4429	1.47183	0.00242		
0.4437	1.47177	0.00241		
0.4445	1.47171	0.00241		
0.4453	1.47165	0.00241		
0.4461	1.4716	0.0024		
0.4469	1.47154	0.0024		
0.4477	1.47148	0.00239		
0.4485	1.47142	0.00239		
0.4493	1.47137	0.00238		
0.4501	1.47131	0.00238		
0.4509	1.47126	0.00237		
0.4517	1.4712	0.00237		
0.4525	1.47115	0.00236		
0.4533	1.47109	0.00236		
0.4541	1.47104	0.00236		
0.4549	1.47098	0.00235		
0.4557	1.47093	0.00235		
0.4565	1.47088	0.00234		
0.4572	1.47082	0.00234		
0.458	1.47077	0.00233		
0.4588	1.47072	0.00233		
0.4596	1.47066	0.00233		
0.4604	1.47061	0.00232		
0.4612	1.47056	0.00232		
0.462	1.47051	0.00231		
0.4628	1.47046	0.00231		
0.4636	1.4704	0.0023		
0.4644	1.47035	0.0023		
0.4652	1.4703	0.0023		
0.466	1.47025	0.00229		
0.4668	1.4702	0.00229		
0.4676	1.47015	0.00228		
0.4684	1.4701	0.00228		
0.4692	1.47005	0.00228		
0.47	1.47	0.00227		
0.4708	1.46995	0.00227		
0.4716	1.46991	0.00226		
0.4724	1.46986	0.00226		
0.4731	1.46981	0.00225		
0.4739	1.46976	0.00225		
0.4747	1.46971	0.00225		
0.4755	1.46967	0.00224		
0.4763	1.46962	0.00224		
0.4771	1.46957	0.00223		
0.4779	1.46952	0.00223		
0.4787	1.46948	0.00223		
0.4795	1.46943	0.00222		
0.4803	1.46939	0.00222		
0.4811	1.46934	0.00222		
0.4819	1.46929	0.00221		
0.4827	1.46925	0.00221		
0.4835	1.4692	0.0022		
0.4843	1.46916	0.0022		
0.4851	1.46911	0.0022		
0.4859	1.46907	0.00219		
0.4867	1.46903	0.00219		
0.4875	1.46898	0.00218		
0.4883	1.46894	0.00218		
0.489	1.46889	0.00218		
0.4898	1.46885	0.00217		
0.4906	1.46881	0.00217		
0.4914	1.46876	0.00217		
0.4922	1.46872	0.00216		
0.493	1.46868	0.00216		
0.4938	1.46864	0.00215		
0.4946	1.4686	0.00215		
0.4954	1.46855	0.00215		
0.4962	1.46851	0.00214		
0.497	1.46847	0.00214		
0.4978	1.46843	0.00214		
0.4986	1.46839	0.00213		
0.4994	1.46835	0.00213		
0.5002	1.46831	0.00213		
0.501	1.46827	0.00212		
0.5018	1.46823	0.00212		
0.5026	1.46819	0.00211		
0.5034	1.46815	0.00211		
0.5042	1.46811	0.00211		
0.5049	1.46807	0.0021		
0.5057	1.46803	0.0021		
0.5065	1.46799	0.0021		
0.5073	1.46795	0.00209		
0.5081	1.46791	0.00209		
0.5089	1.46788	0.00209		
0.5097	1.46784	0.00208		
0.5105	1.4678	0.00208		
0.5113	1.46776	0.00208		
0.5121	1.46772	0.00207		
0.5129	1.46769	0.00207		
0.5137	1.46765	0.00207		
0.5145	1.46761	0.00206		
0.5153	1.46758	0.00206		
0.5161	1.46754	0.00206		
0.5169	1.4675	0.00205		
0.5177	1.46747	0.00205		
0.5185	1.46743	0.00205		
0.5193	1.4674	0.00204		
0.5201	1.46736	0.00204		
0.5208	1.46732	0.00204		
0.5216	1.46729	0.00203		
0.5224	1.46725	0.00203		
0.5232	1.46722	0.00203		
0.524	1.46718	0.00202		
0.5248	1.46715	0.00202		
0.5256	1.46711	0.00202		
0.5264	1.46708	0.00201		
0.5272	1.46705	0.00201		
0.528	1.46701	0.00201		
0.5288	1.46698	0.002		
0.5296	1.46694	0.002		
0.5304	1.46691	0.002		
0.5312	1.46688	0.002		
0.532	1.46684	0.00199		
0.5328	1.46681	0.00199		
0.5336	1.46678	0.00199		
0.5344	1.46675	0.00198		
0.5352	1.46671	0.00198		
0.536	1.46668	0.00198		
0.5367	1.46665	0.00197		
0.5375	1.46662	0.00197		
0.5383	1.46658	0.00197		
0.5391	1.46655	0.00196		
0.5399	1.46652	0.00196		
0.5407	1.46649	0.00196		
0.5415	1.46646	0.00196		
0.5423	1.46643	0.00195		
0.5431	1.4664	0.00195		
0.5439	1.46637	0.00195		
0.5447	1.46633	0.00194		
0.5455	1.4663	0.00194		
0.5463	1.46627	0.00194		
0.5471	1.46624	0.00193		
0.5479	1.46621	0.00193		
0.5487	1.46618	0.00193		
0.5495	1.46615	0.00193		
0.5503	1.46612	0.00192		
0.5511	1.46609	0.00192		
0.5519	1.46606	0.00192		
0.5526	1.46603	0.00191		
0.5534	1.466	0.00191		
0.5542	1.46598	0.00191		
0.555	1.46595	0.00191		
0.5558	1.46592	0.0019		
0.5566	1.46589	0.0019		
0.5574	1.46586	0.0019		
0.5582	1.46583	0.00189		
0.559	1.4658	0.00189		
0.5598	1.46577	0.00189		
0.5606	1.46575	0.00189		
0.5614	1.46572	0.00188		
0.5622	1.46569	0.00188		
0.563	1.46566	0.00188		
0.5638	1.46563	0.00187		
0.5646	1.46561	0.00187		
0.5654	1.46558	0.00187		
0.5662	1.46555	0.00187		
0.567	1.46552	0.00186		
0.5678	1.4655	0.00186		
0.5685	1.46547	0.00186		
0.5693	1.46544	0.00186		
0.5701	1.46542	0.00185		
0.5709	1.46539	0.00185		
0.5717	1.46536	0.00185		
0.5725	1.46534	0.00184		
0.5733	1.46531	0.00184		
0.5741	1.46529	0.00184		
0.5749	1.46526	0.00184		
0.5757	1.46523	0.00183		
0.5765	1.46521	0.00183		
0.5773	1.46518	0.00183		
0.5781	1.46516	0.00183		
0.5789	1.46513	0.00182		
0.5797	1.46511	0.00182		
0.5805	1.46508	0.00182		
0.5813	1.46506	0.00182		
0.5821	1.46503	0.00181		
0.5829	1.46501	0.00181		
0.5837	1.46498	0.00181		
0.5845	1.46496	0.00181		
0.5852	1.46493	0.0018		
0.586	1.46491	0.0018		
0.5868	1.46488	0.0018		
0.5876	1.46486	0.0018		
0.5884	1.46483	0.00179		
0.5892	1.46481	0.00179		
0.59	1.46479	0.00179		
0.5908	1.46476	0.00179		
0.5916	1.46474	0.00178		
0.5924	1.46471	0.00178		
0.5932	1.46469	0.00178		
0.594	1.46467	0.00178		
0.5948	1.46464	0.00177		
0.5956	1.46462	0.00177		
0.5964	1.4646	0.00177		
0.5972	1.46457	0.00177		
0.598	1.46455	0.00176		
0.5988	1.46453	0.00176		
0.5996	1.46451	0.00176		
0.6004	1.46448	0.00176		
0.6011	1.46446	0.00175		
0.6019	1.46444	0.00175		
0.6027	1.46442	0.00175		
0.6035	1.46439	0.00175		
0.6043	1.46437	0.00174		
0.6051	1.46435	0.00174		
0.6059	1.46433	0.00174		
0.6067	1.46431	0.00174		
0.6075	1.46428	0.00173		
0.6083	1.46426	0.00173		
0.6091	1.46424	0.00173		
0.6099	1.46422	0.00173		
0.6107	1.4642	0.00172		
0.6115	1.46418	0.00172		
0.6123	1.46416	0.00172		
0.6131	1.46413	0.00172		
0.6139	1.46411	0.00172		
0.6147	1.46409	0.00171		
0.6155	1.46407	0.00171		
0.6163	1.46405	0.00171		
0.617	1.46403	0.00171		
0.6178	1.46401	0.0017		
0.6186	1.46399	0.0017		
0.6194	1.46397	0.0017		
0.6202	1.46395	0.0017		
0.621	1.46393	0.0017		
0.6218	1.46391	0.00169		
0.6226	1.46389	0.00169		
0.6234	1.46387	0.00169		
0.6242	1.46385	0.00169		
0.625	1.46383	0.00168		
0.6258	1.46381	0.00168		
0.6266	1.46379	0.00168		
0.6274	1.46377	0.00168		
0.6282	1.46375	0.00168		
0.629	1.46373	0.00167		
0.6298	1.46371	0.00167		
0.6306	1.46369	0.00167		
0.6314	1.46367	0.00167		
0.6322	1.46365	0.00166		
0.6329	1.46363	0.00166		
0.6337	1.46362	0.00166		
0.6345	1.4636	0.00166		
0.6353	1.46358	0.00166		
0.6361	1.46356	0.00165		
0.6369	1.46354	0.00165		
0.6377	1.46352	0.00165		
0.6385	1.4635	0.00165		
0.6393	1.46348	0.00165		
0.6401	1.46347	0.00164		
0.6409	1.46345	0.00164		
0.6417	1.46343	0.00164		
0.6425	1.46341	0.00164		
0.6433	1.46339	0.00163		
0.6441	1.46338	0.00163		
0.6449	1.46336	0.00163		
0.6457	1.46334	0.00163		
0.6465	1.46332	0.00163		
0.6473	1.4633	0.00162		
0.6481	1.46329	0.00162		
0.6488	1.46327	0.00162		
0.6496	1.46325	0.00162		
0.6504	1.46323	0.00162		
0.6512	1.46322	0.00161		
0.652	1.4632	0.00161		
0.6528	1.46318	0.00161		
0.6536	1.46316	0.00161		
0.6544	1.46315	0.00161		
0.6552	1.46313	0.0016		
0.656	1.46311	0.0016		
0.6568	1.4631	0.0016		
0.6576	1.46308	0.0016		
0.6584	1.46306	0.0016		
0.6592	1.46304	0.00159		
0.66	1.46303	0.00159		
0.6608	1.46301	0.00159		
0.6616	1.46299	0.00159		
0.6624	1.46298	0.00159		
0.6632	1.46296	0.00158		
0.664	1.46294	0.00158		
0.6647	1.46293	0.00158		
0.6655	1.46291	0.00158		
0.6663	1.4629	0.00158		
0.6671	1.46288	0.00157		
0.6679	1.46286	0.00157		
0.6687	1.46285	0.00157		
0.6695	1.46283	0.00157		
0.6703	1.46281	0.00157		
0.6711	1.4628	0.00157		
0.6719	1.46278	0.00156		
0.6727	1.46277	0.00156		
0.6735	1.46275	0.00156		
0.6743	1.46273	0.00156		
0.6751	1.46272	0.00156		
0.6759	1.4627	0.00155		
0.6767	1.46269	0.00155		
0.6775	1.46267	0.00155		
0.6783	1.46266	0.00155		
0.6791	1.46264	0.00155		
0.6799	1.46263	0.00154		
0.6806	1.46261	0.00154		
0.6814	1.46259	0.00154		
0.6822	1.46258	0.00154		
0.683	1.46256	0.00154		
0.6838	1.46255	0.00154		
0.6846	1.46253	0.00153		
0.6854	1.46252	0.00153		
0.6862	1.4625	0.00153		
0.687	1.46249	0.00153		
0.6878	1.46247	0.00153		
0.6886	1.46246	0.00152		
0.6894	1.46244	0.00152		
0.6902	1.46243	0.00152		
0.691	1.46241	0.00152		
0.6918	1.4624	0.00152		
0.6926	1.46238	0.00152		
0.6934	1.46237	0.00151		
0.6942	1.46236	0.00151		
0.695	1.46234	0.00151		
0.6958	1.46233	0.00151		
0.6965	1.46231	0.00151		
0.6973	1.4623	0.0015		
0.6981	1.46228	0.0015		
0.6989	1.46227	0.0015		
0.6997	1.46225	0.0015		
0.7005	1.46224	0.0015		
0.7013	1.46223	0.0015		
0.7021	1.46221	0.00149		
0.7029	1.4622	0.00149		
0.7037	1.46218	0.00149		
0.7045	1.46217	0.00149		
0.7053	1.46216	0.00149		
0.7061	1.46214	0.00149		
0.7069	1.46213	0.00148		
0.7077	1.46211	0.00148		
0.7085	1.4621	0.00148		
0.7093	1.46209	0.00148		
0.7101	1.46207	0.00148		
0.7109	1.46206	0.00147		
0.7117	1.46205	0.00147		
0.7124	1.46203	0.00147		
0.7132	1.46202	0.00147		
0.714	1.46201	0.00147		
0.7148	1.46199	0.00147		
0.7156	1.46198	0.00146		
0.7164	1.46197	0.00146		
0.7172	1.46195	0.00146		
0.718	1.46194	0.00146		
0.7188	1.46193	0.00146		
0.7196	1.46191	0.00146		
0.7204	1.4619	0.00145		
0.7212	1.46189	0.00145		
0.722	1.46187	0.00145		
0.7228	1.46186	0.00145		
0.7236	1.46185	0.00145		
0.7244	1.46183	0.00145		
0.7252	1.46182	0.00144		
0.726	1.46181	0.00144		
0.7268	1.4618	0.00144		
0.7276	1.46178	0.00144		
0.7283	1.46177	0.00144		
0.7291	1.46176	0.00144		
0.7299	1.46175	0.00144		
0.7307	1.46173	0.00143		
0.7315	1.46172	0.00143		
0.7323	1.46171	0.00143		
0.7331	1.4617	0.00143		
0.7339	1.46168	0.00143		
0.7347	1.46167	0.00143		
0.7355	1.46166	0.00142		
0.7363	1.46165	0.00142		
0.7371	1.46163	0.00142		
0.7379	1.46162	0.00142		
0.7387	1.46161	0.00142		
0.7395	1.4616	0.00142		
0.7403	1.46159	0.00141		
0.7411	1.46157	0.00141		
0.7419	1.46156	0.00141		
0.7427	1.46155	0.00141		
0.7435	1.46154	0.00141		
0.7443	1.46153	0.00141		
0.745	1.46151	0.00141		
0.7458	1.4615	0.0014		
0.7466	1.46149	0.0014		
0.7474	1.46148	0.0014		
0.7482	1.46147	0.0014		
0.749	1.46146	0.0014		
0.7498	1.46144	0.0014		
0.7506	1.46143	0.00139		
0.7514	1.46142	0.00139		
0.7522	1.46141	0.00139		
0.753	1.4614	0.00139		
0.7538	1.46139	0.00139		
0.7546	1.46138	0.00139		
0.7554	1.46136	0.00139		
0.7562	1.46135	0.00138		
0.757	1.46134	0.00138		
0.7578	1.46133	0.00138		
0.7586	1.46132	0.00138		
0.7594	1.46131	0.00138		
0.7602	1.4613	0.00138		
0.7609	1.46129	0.00137		
0.7617	1.46128	0.00137		
0.7625	1.46126	0.00137		
0.7633	1.46125	0.00137		
0.7641	1.46124	0.00137		
0.7649	1.46123	0.00137		
0.7657	1.46122	0.00137		
0.7665	1.46121	0.00136		
0.7673	1.4612	0.00136		
0.7681	1.46119	0.00136		
0.7689	1.46118	0.00136		
0.7697	1.46117	0.00136		
0.7705	1.46116	0.00136		
0.7713	1.46115	0.00136		
0.7721	1.46114	0.00135		
0.7729	1.46113	0.00135		
0.7737	1.46111	0.00135		
0.7745	1.4611	0.00135		
0.7753	1.46109	0.00135		
0.7761	1.46108	0.00135		
0.7768	1.46107	0.00135		
0.7776	1.46106	0.00134		
0.7784	1.46105	0.00134		
0.7792	1.46104	0.00134		
0.78	1.46103	0.00134		
0.7808	1.46102	0.00134		
0.7816	1.46101	0.00134		
0.7824	1.461	0.00134		
0.7832	1.46099	0.00133		
0.784	1.46098	0.00133		
0.7848	1.46097	0.00133		
0.7856	1.46096	0.00133		
0.7864	1.46095	0.00133		
0.7872	1.46094	0.00133		
0.788	1.46093	0.00133		
0.7888	1.46092	0.00133		
0.7896	1.46091	0.00132		
0.7904	1.4609	0.00132		
0.7912	1.46089	0.00132		
0.792	1.46088	0.00132		
0.7927	1.46087	0.00132		
0.7935	1.46086	0.00132		
0.7943	1.46086	0.00132		
0.7951	1.46085	0.00131		
0.7959	1.46084	0.00131		
0.7967	1.46083	0.00131		
0.7975	1.46082	0.00131		
0.7983	1.46081	0.00131		
0.7991	1.4608	0.00131		
0.7999	1.46079	0.00131		
0.8007	1.46078	0.00131		
0.8015	1.46077	0.0013		
0.8023	1.46076	0.0013		
0.8031	1.46075	0.0013		
0.8039	1.46074	0.0013		
0.8047	1.46073	0.0013		
0.8055	1.46072	0.0013		
0.8063	1.46072	0.0013		
0.8071	1.46071	0.00129		
0.8079	1.4607	0.00129		
0.8086	1.46069	0.00129		
0.8094	1.46068	0.00129		
0.8102	1.46067	0.00129		
0.811	1.46066	0.00129		
0.8118	1.46065	0.00129		
0.8126	1.46064	0.00129		
0.8134	1.46063	0.00128		
0.8142	1.46063	0.00128		
0.815	1.46062	0.00128		
0.8158	1.46061	0.00128		
0.8166	1.4606	0.00128		
0.8174	1.46059	0.00128		
0.8182	1.46058	0.00128		
0.819	1.46057	0.00128		
0.8198	1.46056	0.00127		
0.8206	1.46056	0.00127		
0.8214	1.46055	0.00127		
0.8222	1.46054	0.00127		
0.823	1.46053	0.00127		
0.8238	1.46052	0.00127		
0.8245	1.46051	0.00127		
0.8253	1.46051	0.00127		
0.8261	1.4605	0.00126		
0.8269	1.46049	0.00126		
0.8277	1.46048	0.00126		
0.8285	1.46047	0.00126		
0.8293	1.46046	0.00126		
0.8301	1.46046	0.00126		
0.8309	1.46045	0.00126		
0.8317	1.46044	0.00126		
0.8325	1.46043	0.00125		
0.8333	1.46042	0.00125		
0.8341	1.46041	0.00125		
0.8349	1.46041	0.00125		
0.8357	1.4604	0.00125		
0.8365	1.46039	0.00125		
0.8373	1.46038	0.00125		
0.8381	1.46037	0.00125		
0.8389	1.46037	0.00124		
0.8397	1.46036	0.00124		
0.8404	1.46035	0.00124		
0.8412	1.46034	0.00124		
0.842	1.46033	0.00124		
0.8428	1.46033	0.00124		
0.8436	1.46032	0.00124		
0.8444	1.46031	0.00124		
0.8452	1.4603	0.00124		
0.846	1.4603	0.00123		
0.8468	1.46029	0.00123		
0.8476	1.46028	0.00123		
0.8484	1.46027	0.00123		
0.8492	1.46026	0.00123		
0.85	1.46026	0.00123		
0.8508	1.46025	0.00123		
0.8516	1.46024	0.00123		
0.8524	1.46023	0.00122		
0.8532	1.46023	0.00122		
0.854	1.46022	0.00122		
0.8548	1.46021	0.00122		
0.8556	1.4602	0.00122		
0.8563	1.4602	0.00122		
0.8571	1.46019	0.00122		
0.8579	1.46018	0.00122		
0.8587	1.46017	0.00122		
0.8595	1.46017	0.00121		
0.8603	1.46016	0.00121		
0.8611	1.46015	0.00121		
0.8619	1.46014	0.00121		
0.8627	1.46014	0.00121		
0.8635	1.46013	0.00121		
0.8643	1.46012	0.00121		
0.8651	1.46012	0.00121		
0.8659	1.46011	0.00121		
0.8667	1.4601	0.0012		
0.8675	1.46009	0.0012		
0.8683	1.46009	0.0012		
0.8691	1.46008	0.0012		
0.8699	1.46007	0.0012		
0.8707	1.46007	0.0012		
0.8715	1.46006	0.0012		
0.8722	1.46005	0.0012		
0.873	1.46004	0.0012		
0.8738	1.46004	0.00119		
0.8746	1.46003	0.00119		
0.8754	1.46002	0.00119		
0.8762	1.46002	0.00119		
0.877	1.46001	0.00119		
0.8778	1.46	0.00119		
0.8786	1.46	0.00119		
0.8794	1.45999	0.00119		
0.8802	1.45998	0.00119		
0.881	1.45998	0.00118		
0.8818	1.45997	0.00118		
0.8826	1.45996	0.00118		
0.8834	1.45996	0.00118		
0.8842	1.45995	0.00118		
0.885	1.45994	0.00118		
0.8858	1.45994	0.00118		
0.8866	1.45993	0.00118		
0.8874	1.45992	0.00118		
0.8882	1.45991	0.00117		
0.8889	1.45991	0.00117		
0.8897	1.4599	0.00117		
0.8905	1.4599	0.00117		
0.8913	1.45989	0.00117		
0.8921	1.45988	0.00117		
0.8929	1.45988	0.00117		
0.8937	1.45987	0.00117		
0.8945	1.45986	0.00117		
0.8953	1.45986	0.00117		
0.8961	1.45985	0.00116		
0.8969	1.45984	0.00116		
0.8977	1.45984	0.00116		
0.8985	1.45983	0.00116		
0.8993	1.45982	0.00116		
0.9001	1.45982	0.00116		
0.9009	1.45981	0.00116		
0.9017	1.4598	0.00116		
0.9025	1.4598	0.00116		
0.9033	1.45979	0.00116		
0.9041	1.45979	0.00115		
0.9048	1.45978	0.00115		
0.9056	1.45977	0.00115		
0.9064	1.45977	0.00115		
0.9072	1.45976	0.00115		
0.908	1.45975	0.00115		
0.9088	1.45975	0.00115		
0.9096	1.45974	0.00115		
0.9104	1.45973	0.00115		
0.9112	1.45973	0.00114		
0.912	1.45972	0.00114		
0.9128	1.45972	0.00114		
0.9136	1.45971	0.00114		
0.9144	1.4597	0.00114		
0.9152	1.4597	0.00114		
0.916	1.45969	0.00114		
0.9168	1.45969	0.00114		
0.9176	1.45968	0.00114		
0.9184	1.45967	0.00114		
0.9192	1.45967	0.00113		
0.92	1.45966	0.00113		
0.9207	1.45965	0.00113		
0.9215	1.45965	0.00113		
0.9223	1.45964	0.00113		
0.9231	1.45964	0.00113		
0.9239	1.45963	0.00113		
0.9247	1.45962	0.00113		
0.9255	1.45962	0.00113		
0.9263	1.45961	0.00113		
0.9271	1.45961	0.00112		
0.9279	1.4596	0.00112		
0.9287	1.45959	0.00112		
0.9295	1.45959	0.00112		
0.9303	1.45958	0.00112		
0.9311	1.45958	0.00112		
0.9319	1.45957	0.00112		
0.9327	1.45957	0.00112		
0.9335	1.45956	0.00112		
0.9343	1.45955	0.00112		
0.9351	1.45955	0.00112		
0.9359	1.45954	0.00111		
0.9366	1.45954	0.00111		
0.9374	1.45953	0.00111		
0.9382	1.45952	0.00111		
0.939	1.45952	0.00111		
0.9398	1.45951	0.00111		
0.9406	1.45951	0.00111		
0.9414	1.4595	0.00111		
0.9422	1.4595	0.00111		
0.943	1.45949	0.00111		
0.9438	1.45948	0.0011		
0.9446	1.45948	0.0011		
0.9454	1.45947	0.0011		
0.9462	1.45947	0.0011		
0.947	1.45946	0.0011		
0.9478	1.45946	0.0011		
0.9486	1.45945	0.0011		
0.9494	1.45944	0.0011		
0.9502	1.45944	0.0011		
0.951	1.45943	0.0011		
0.9518	1.45943	0.0011		
0.9525	1.45942	0.00109		
0.9533	1.45942	0.00109		
0.9541	1.45941	0.00109		
0.9549	1.4594	0.00109		
0.9557	1.4594	0.00109		
0.9565	1.45939	0.00109		
0.9573	1.45939	0.00109		
0.9581	1.45938	0.00109		
0.9589	1.45938	0.00109		
0.9597	1.45937	0.00109		
0.9605	1.45936	0.00108		
0.9613	1.45936	0.00108		
0.9621	1.45935	0.00108		
0.9629	1.45935	0.00108		
0.9637	1.45934	0.00108		
0.9645	1.45934	0.00108		
0.9653	1.45933	0.00108		
0.9661	1.45933	0.00108		
0.9669	1.45932	0.00108		
0.9677	1.45931	0.00108		
0.9684	1.45931	0.00108		
0.9692	1.4593	0.00107		
0.97	1.4593	0.00107		
0.9708	1.45929	0.00107		
0.9716	1.45929	0.00107		
0.9724	1.45928	0.00107		
0.9732	1.45928	0.00107		
0.974	1.45927	0.00107		
0.9748	1.45926	0.00107		
0.9756	1.45926	0.00107		
0.9764	1.45925	0.00107		
0.9772	1.45925	0.00107		
0.978	1.45924	0.00106		
0.9788	1.45924	0.00106		
0.9796	1.45923	0.00106		
0.9804	1.45923	0.00106		
0.9812	1.45922	0.00106		
0.982	1.45921	0.00106		
0.9828	1.45921	0.00106		
0.9836	1.4592	0.00106		
0.9843	1.4592	0.00106		
0.9851	1.45919	0.00106		
0.9859	1.45919	0.00106		
0.9867	1.45918	0.00105		
0.9875	1.45918	0.00105		
0.9883	1.45917	0.00105		
0.9891	1.45917	0.00105		
0.9899	1.45916	0.00105		
0.9907	1.45915	0.00105		
0.9915	1.45915	0.00105		
0.9923	1.45914	0.00105		
0.9931	1.45914	0.00105		
0.9939	1.45913	0.00105		
0.9947	1.45913	0.00105		
