#Wavelength	n	k
0.2005	1.918847893	1.274
0.2012	1.922632075	1.277
0.202	1.926508778	1.281
0.2028	1.930511233	1.284
0.2036	1.934732041	1.288
0.2044	1.939076837	1.292
0.2052	1.943544023	1.295
0.206	1.948241543	1.299
0.2068	1.953071525	1.303
0.2076	1.958024946	1.307
0.2084	1.963209492	1.311
0.2092	1.968532586	1.316
0.21	1.973977887	1.32
0.2108	1.97966023	1.324
0.2116	1.985476888	1.328
0.2124	1.9914128	1.333
0.2132	1.997597736	1.337
0.214	2.00390245	1.341
0.2148	2.010338859	1.345
0.2156	2.017009467	1.35
0.2164	2.023792139	1.354
0.2171	2.030729102	1.358
0.2179	2.037869968	1.363
0.2187	2.04511719	1.367
0.2195	2.052548582	1.371
0.2203	2.060144392	1.375
0.2211	2.067840645	1.38
0.2219	2.075757849	1.384
0.2227	2.083792063	1.388
0.2235	2.091948516	1.392
0.2243	2.100314045	1.396
0.2251	2.108770023	1.4
0.2259	2.117397669	1.404
0.2267	2.12617468	1.408
0.2275	2.135036682	1.412
0.2283	2.144127128	1.416
0.2291	2.153301374	1.419
0.2299	2.16262108	1.423
0.2307	2.172103719	1.427
0.2315	2.181663539	1.43
0.2323	2.19144077	1.434
0.233	2.20130496	1.437
0.2338	2.211312255	1.441
0.2346	2.221481372	1.444
0.2354	2.231722221	1.447
0.2362	2.242198053	1.45
0.237	2.252747125	1.453
0.2378	2.263464238	1.457
0.2386	2.274328367	1.459
0.2394	2.285293607	1.462
0.2402	2.296482596	1.465
0.241	2.307742156	1.468
0.2418	2.319231338	1.471
0.2426	2.330832349	1.473
0.2434	2.342601193	1.476
0.2442	2.354560868	1.478
0.245	2.366623764	1.481
0.2458	2.37896223	1.483
0.2466	2.391373813	1.485
0.2474	2.404075398	1.487
0.2482	2.416893637	1.489
0.2489	2.429943039	1.491
0.2497	2.443192704	1.493
0.2505	2.456610436	1.494
0.2513	2.470316926	1.496
0.2521	2.484123989	1.497
0.2529	2.498312118	1.498
0.2537	2.512574951	1.499
0.2545	2.527221697	1.5
0.2553	2.541990376	1.501
0.2561	2.557083868	1.501
0.2569	2.572374706	1.501
0.2577	2.587928283	1.502
0.2585	2.60375061	1.501
0.2593	2.619772159	1.501
0.2601	2.636125894	1.5
0.2609	2.652616013	1.499
0.2617	2.669489071	1.497
0.2625	2.686439004	1.495
0.2633	2.703804711	1.493
0.2641	2.721213693	1.49
0.2648	2.739008853	1.487
0.2656	2.756853576	1.484
0.2664	2.775004784	1.48
0.2672	2.793219397	1.475
0.268	2.81165962	1.47
0.2688	2.830158519	1.465
0.2696	2.848802141	1.459
0.2704	2.867479988	1.452
0.2712	2.886222407	1.445
0.272	2.904955299	1.437
0.2728	2.923673487	1.428
0.2736	2.942321505	1.419
0.2744	2.960875977	1.409
0.2752	2.979287171	1.399
0.276	2.997525164	1.388
0.2768	3.015540774	1.376
0.2776	3.033300976	1.364
0.2784	3.050761763	1.351
0.2792	3.067880374	1.338
0.28	3.084633471	1.323
0.2807	3.100951171	1.309
0.2815	3.11685694	1.294
0.2823	3.132226506	1.278
0.2831	3.147164814	1.262
0.2839	3.161458616	1.245
0.2847	3.175333887	1.228
0.2855	3.188450603	1.211
0.2863	3.201195217	1.193
0.2871	3.213065095	1.175
0.2879	3.224640886	1.157
0.2887	3.235228963	1.138
0.2895	3.245626808	1.12
0.2903	3.254933731	1.101
0.2911	3.264171441	1.083
0.2919	3.272231773	1.064
0.2927	3.280292105	1.045
0.2935	3.287228721	1.026
0.2943	3.294106789	1.007
0.2951	3.300072951	0.9886
0.2959	3.305856663	0.97
0.2967	3.310943099	0.9515
0.2974	3.315736164	0.9331
0.2982	3.320034586	0.9149
0.299	3.323947734	0.8968
0.2998	3.327546152	0.8788
0.3006	3.330688034	0.861
0.3014	3.333667222	0.8433
0.3022	3.33613558	0.8258
0.303	3.338566757	0.8084
0.3038	3.340440565	0.7912
0.3046	3.342314373	0.7739
0.3054	3.343717387	0.757
0.3062	3.345050633	0.74
0.307	3.3460402	0.7231
0.3078	3.346857941	0.7063
0.3086	3.347441644	0.6896
0.3094	3.347738958	0.6729
0.3102	3.34791463	0.6562
0.311	3.347658847	0.6396
0.3118	3.347403065	0.623
0.3126	3.346553196	0.6065
0.3133	3.345689516	0.5899
0.3141	3.344337819	0.5734
0.3149	3.342797919	0.5569
0.3157	3.3409194	0.5405
0.3165	3.338632105	0.5241
0.3173	3.336206001	0.5078
0.3181	3.333108616	0.4915
0.3189	3.330011231	0.4753
0.3197	3.326165372	0.4594
0.3205	3.322214018	0.4434
0.3213	3.317767503	0.4277
0.3221	3.312944888	0.4121
0.3229	3.307910513	0.3967
0.3237	3.302230113	0.3816
0.3245	3.296549712	0.3666
0.3253	3.290127474	0.3521
0.3261	3.283633661	0.3376
0.3269	3.276721865	0.3236
0.3277	3.269486504	0.3098
0.3285	3.262120348	0.2963
0.3292	3.254236722	0.2833
0.33	3.246353097	0.2703
0.3308	3.238022516	0.2582
0.3316	3.229597933	0.2461
0.3324	3.220986686	0.2345
0.3332	3.212134935	0.2232
0.334	3.203272539	0.2121
0.3348	3.194107141	0.2018
0.3356	3.184941742	0.1915
0.3364	3.175649416	0.1819
0.3372	3.166278306	0.1724
0.338	3.156887261	0.1633
0.3388	3.147409058	0.1548
0.3396	3.137930856	0.1462
0.3404	3.128437817	0.1384
0.3412	3.1189396	0.1307
0.342	3.109456809	0.1234
0.3428	3.100013247	0.1165
0.3436	3.090569685	0.1096
0.3444	3.081220775	0.1034
0.3451	3.071894208	0.09724
0.3459	3.062621588	0.09141
0.3467	3.053462796	0.08596
0.3475	3.044304004	0.08051
0.3483	3.035315853	0.07567
0.3491	3.026365239	0.07086
0.3499	3.017487322	0.06631
0.3507	3.008776321	0.06209
0.3515	3.00006532	0.05787
0.3523	2.991557902	0.05414
0.3531	2.983110414	0.05046
0.3539	2.974726825	0.04696
0.3547	2.966560658	0.04378
0.3555	2.95839449	0.0406
0.3563	2.950424692	0.03777
0.3571	2.942552924	0.03504
0.3579	2.934709165	0.0324
0.3587	2.927141474	0.03008
0.3595	2.919573783	0.02775
0.3603	2.912162697	0.02567
0.361	2.904906757	0.02372
0.3618	2.897650817	0.02178
0.3626	2.890681448	0.02017
0.3634	2.883744765	0.01856
0.3642	2.876900186	0.01708
0.365	2.870294984	0.01578
0.3658	2.863689781	0.01448
0.3666	2.857309524	0.01339
0.3674	2.851054172	0.01235
0.3682	2.84479882	0.01134
0.369	2.8388855	0.01052
0.3698	2.832974632	0.00969
0.3706	2.827171209	0.00894
0.3714	2.82158843	0.008279
0.3722	2.81600565	0.007618
0.373	2.810622174	0.00706
0.3738	2.805347575	0.006531
0.3746	2.800072977	0.006012
0.3754	2.795071453	0.005588
0.3762	2.790084166	0.005165
0.3769	2.785160528	0.004773
0.3777	2.780439975	0.004433
0.3785	2.775719422	0.004094
0.3793	2.771125167	0.003797
0.3801	2.7666517	0.003525
0.3809	2.762178232	0.003252
0.3817	2.757880378	0.003028
0.3825	2.753635595	0.002809
0.3833	2.749392688	0.002597
0.3841	2.745359551	0.002421
0.3849	2.741326415	0.002245
0.3857	2.737339117	0.002081
0.3865	2.733501979	0.001939
0.3873	2.729664841	0.001798
0.3881	2.725908167	0.001672
0.3889	2.72225272	0.001558
0.3897	2.718597273	0.001443
0.3905	2.715049044	0.001346
0.3913	2.711562248	0.001254
0.3921	2.708075451	0.001162
0.3928	2.70471603	0.001087
0.3936	2.701386019	0.001012
0.3944	2.698056008	9.39E-04
0.3952	2.694868021	8.79E-04
0.396	2.691684008	8.19E-04
0.3968	2.688515896	7.62E-04
0.3976	2.685468066	7.13E-04
0.3984	2.682420236	6.64E-04
0.3992	2.679403489	6.19E-04
0.4	2.676482914	5.79E-04
0.4008	2.673562339	5.40E-04
0.4016	2.670684073	5.04E-04
0.4024	2.667882624	4.72E-04
0.4032	2.665081175	4.40E-04
0.404	2.662329928	4.12E-04
0.4048	2.659640187	3.86E-04
0.4056	2.656950447	3.60E-04
0.4064	2.654315991	3.37E-04
0.4072	2.651731185	3.16E-04
0.408	2.64914638	2.95E-04
0.4087	2.646619575	2.76E-04
0.4095	2.644133506	2.59E-04
0.4103	2.641647437	2.42E-04
0.4111	2.63922009	2.27E-04
0.4119	2.636827077	2.13E-04
0.4127	2.634434065	1.99E-04
0.4135	2.632098815	1.87E-04
0.4143	2.629793642	1.76E-04
0.4151	2.62748847	1.64E-04
0.4159	2.625238681	1.54E-04
0.4167	2.623016547	1.45E-04
0.4175	2.620794413	1.36E-04
0.4183	2.618624093	1.28E-04
0.4191	2.616480574	1.20E-04
0.4199	2.614337055	1.13E-04
0.4207	2.612240773	1.06E-04
0.4215	2.610171779	9.97E-05
0.4223	2.608102786	9.34E-05
0.4231	2.606075609	8.80E-05
0.4239	2.604077358	8.28E-05
0.4246	2.602079107	7.77E-05
0.4254	2.600116547	7.32E-05
0.4262	2.598185531	6.90E-05
0.427	2.596254514	6.48E-05
0.4278	2.594352471	6.11E-05
0.4286	2.592485429	5.77E-05
0.4294	2.590618387	5.42E-05
0.4302	2.588773112	5.11E-05
0.431	2.586967011	4.82E-05
0.4318	2.58516091	4.54E-05
0.4326	2.583368964	4.27E-05
0.4334	2.581620977	4.04E-05
0.4342	2.57987299	3.81E-05
0.435	2.578131217	3.59E-05
0.4358	2.576438701	3.40E-05
0.4366	2.574746185	3.21E-05
0.4374	2.573053668	3.01E-05
0.4382	2.571412158	2.86E-05
0.439	2.569772641	2.70E-05
0.4398	2.568133125	2.54E-05
0.4406	2.56653388	2.41E-05
0.4413	2.56494505	2.28E-05
0.4421	2.563356219	2.14E-05
0.4429	2.561796904	2.03E-05
0.4437	2.560256585	1.93E-05
0.4445	2.558716266	1.82E-05
0.4453	2.557194718	1.72E-05
0.4461	2.55570087	1.63E-05
0.4469	2.554207022	1.54E-05
0.4477	2.552721234	1.46E-05
0.4485	2.551271935	1.38E-05
0.4493	2.549822637	1.31E-05
0.4501	2.548373338	1.24E-05
0.4509	2.546964184	1.17E-05
0.4517	2.545557624	1.11E-05
0.4525	2.544151064	1.05E-05
0.4533	2.542772362	9.99E-06
0.4541	2.541406832	9.49E-06
0.4549	2.540041302	8.98E-06
0.4557	2.538691532	8.52E-06
0.4565	2.537365419	8.10E-06
0.4572	2.536039306	7.67E-06
0.458	2.534717049	7.27E-06
0.4588	2.533428826	6.92E-06
0.4596	2.532140603	6.57E-06
0.4604	2.530852381	6.22E-06
0.4612	2.529592754	5.92E-06
0.462	2.528340977	5.63E-06
0.4628	2.5270892	5.33E-06
0.4636	2.52585315	5.07E-06
0.4644	2.524636448	4.83E-06
0.4652	2.523419746	4.59E-06
0.466	2.52220618	4.35E-06
0.4668	2.521023255	4.15E-06
0.4676	2.51984033	3.94E-06
0.4684	2.518657404	3.74E-06
0.4692	2.517497842	3.57E-06
0.47	2.516347459	3.40E-06
0.4708	2.515197077	3.23E-06
0.4716	2.514056843	3.08E-06
0.4724	2.512937829	2.94E-06
0.4731	2.511818815	2.79E-06
0.4739	2.510699802	2.65E-06
0.4747	2.509608304	2.54E-06
0.4755	2.508519542	2.42E-06
0.4763	2.507430781	2.30E-06
0.4771	2.50635591	2.19E-06
0.4779	2.505296338	2.09E-06
0.4787	2.504236767	1.99E-06
0.4795	2.503177825	1.90E-06
0.4803	2.502146431	1.81E-06
0.4811	2.501115037	1.73E-06
0.4819	2.500083643	1.65E-06
0.4827	2.499067184	1.57E-06
0.4835	2.498063	1.50E-06
0.4843	2.497058817	1.43E-06
0.4851	2.496056089	1.36E-06
0.4859	2.495078194	1.30E-06
0.4867	2.494100299	1.25E-06
0.4875	2.493122403	1.19E-06
0.4883	2.492158272	1.14E-06
0.489	2.491205785	1.09E-06
0.4898	2.490253298	1.04E-06
0.4906	2.489301001	9.88E-07
0.4914	2.488373079	9.47E-07
0.4922	2.487445157	9.05E-07
0.493	2.486517236	8.64E-07
0.4938	2.485600087	8.26E-07
0.4946	2.484695926	7.91E-07
0.4954	2.483791766	7.56E-07
0.4962	2.482887605	7.22E-07
0.497	2.48200364	6.92E-07
0.4978	2.481122469	6.63E-07
0.4986	2.480241298	6.33E-07
0.4994	2.479366424	6.06E-07
0.5002	2.478507504	5.81E-07
0.501	2.477648585	5.56E-07
0.5018	2.476789666	5.32E-07
0.5026	2.475945111	5.10E-07
0.5034	2.475107735	4.89E-07
0.5042	2.47427036	4.68E-07
0.5049	2.473433602	4.47E-07
0.5057	2.472617093	4.29E-07
0.5065	2.471800584	4.12E-07
0.5073	2.470984076	3.94E-07
0.5081	2.470175076	3.77E-07
0.5089	2.469378783	3.62E-07
0.5097	2.46858249	3.48E-07
0.5105	2.467786197	3.33E-07
0.5113	2.467003464	3.20E-07
0.5121	2.466226762	3.07E-07
0.5129	2.465450061	2.94E-07
0.5137	2.464673359	2.82E-07
0.5145	2.463915491	2.71E-07
0.5153	2.463157781	2.60E-07
0.5161	2.462400071	2.49E-07
0.5169	2.46164733	2.39E-07
0.5177	2.460908036	2.30E-07
0.5185	2.460168742	2.21E-07
0.5193	2.459429448	2.12E-07
0.5201	2.458699557	2.04E-07
0.5208	2.457978124	1.96E-07
0.5216	2.457256692	1.89E-07
0.5224	2.45653526	1.81E-07
0.5232	2.455827023	1.74E-07
0.524	2.455122921	1.68E-07
0.5248	2.454418818	1.61E-07
0.5256	2.453714715	1.54E-07
0.5264	2.453027005	1.49E-07
0.5272	2.452339719	1.43E-07
0.528	2.451652433	1.37E-07
0.5288	2.450967859	1.32E-07
0.5296	2.450296897	1.27E-07
0.5304	2.449625935	1.22E-07
0.5312	2.448954973	1.18E-07
0.532	2.44828933	1.13E-07
0.5328	2.447634217	1.09E-07
0.5336	2.446979104	1.05E-07
0.5344	2.446323991	1.01E-07
0.5352	2.445676312	9.69E-08
0.536	2.44503659	9.35E-08
0.5367	2.444396868	9.00E-08
0.5375	2.443757147	8.65E-08
0.5383	2.443126516	8.34E-08
0.5391	2.442501744	8.04E-08
0.5399	2.441876973	7.74E-08
0.5407	2.441252201	7.45E-08
0.5415	2.440637754	7.18E-08
0.5423	2.440027508	6.93E-08
0.5431	2.439417262	6.67E-08
0.5439	2.438807016	6.42E-08
0.5447	2.438207935	6.20E-08
0.5455	2.437611805	5.98E-08
0.5463	2.437015674	5.77E-08
0.5471	2.436419544	5.55E-08
0.5479	2.435835056	5.37E-08
0.5487	2.435252645	5.18E-08
0.5495	2.434670234	4.99E-08
0.5503	2.434087823	4.81E-08
0.5511	2.433517196	4.65E-08
0.5519	2.432948123	4.49E-08
0.5526	2.43237905	4.33E-08
0.5534	2.431809978	4.17E-08
0.5542	2.431252518	4.03E-08
0.555	2.430696415	3.89E-08
0.5558	2.430140312	3.75E-08
0.5566	2.429584208	3.62E-08
0.5574	2.42903926	3.50E-08
0.5582	2.428495771	3.38E-08
0.559	2.427952282	3.27E-08
0.5598	2.427408792	3.15E-08
0.5606	2.426875733	3.05E-08
0.5614	2.426344513	2.95E-08
0.5622	2.425813293	2.85E-08
0.563	2.425282072	2.75E-08
0.5638	2.424760313	2.66E-08
0.5646	2.424241031	2.57E-08
0.5654	2.423721749	2.48E-08
0.5662	2.423202466	2.39E-08
0.567	2.42269145	2.32E-08
0.5678	2.422183784	2.24E-08
0.5685	2.421676117	2.17E-08
0.5693	2.421168451	2.09E-08
0.5701	2.420667648	2.02E-08
0.5709	2.420171287	1.96E-08
0.5717	2.419674926	1.90E-08
0.5725	2.419178565	1.83E-08
0.5733	2.418687474	1.78E-08
0.5741	2.418202118	1.72E-08
0.5749	2.417716762	1.67E-08
0.5757	2.417231406	1.61E-08
0.5765	2.416749551	1.56E-08
0.5773	2.416274909	1.51E-08
0.5781	2.415800267	1.46E-08
0.5789	2.415325625	1.41E-08
0.5797	2.414852557	1.37E-08
0.5805	2.414388348	1.33E-08
0.5813	2.413924139	1.28E-08
0.5821	2.41345993	1.24E-08
0.5829	2.412995721	1.20E-08
0.5837	2.412541171	1.16E-08
0.5845	2.412087122	1.13E-08
0.5852	2.411633073	1.09E-08
0.586	2.411179024	1.06E-08
0.5868	2.410732164	1.02E-08
0.5876	2.410288012	9.93E-09
0.5884	2.409843859	9.63E-09
0.5892	2.409399707	9.33E-09
0.59	2.408960159	9.04E-09
0.5908	2.408525648	8.77E-09
0.5916	2.408091136	8.51E-09
0.5924	2.407656625	8.24E-09
0.5932	2.407224033	7.98E-09
0.594	2.406798915	7.75E-09
0.5948	2.406373797	7.51E-09
0.5956	2.405948679	7.28E-09
0.5964	2.405523562	7.05E-09
0.5972	2.40510674	6.85E-09
0.598	2.404690776	6.65E-09
0.5988	2.404274812	6.45E-09
0.5996	2.403858848	6.25E-09
0.6004	2.40344809	6.06E-09
0.6011	2.403041047	5.89E-09
0.6019	2.402634004	5.71E-09
0.6027	2.402226961	5.54E-09
0.6035	2.401821969	5.37E-09
0.6043	2.401423622	5.22E-09
0.6051	2.401025274	5.07E-09
0.6059	2.400626927	4.91E-09
0.6067	2.400228579	4.76E-09
0.6075	2.399837548	4.63E-09
0.6083	2.399447678	4.50E-09
0.6091	2.399057807	4.36E-09
0.6099	2.398667937	4.23E-09
0.6107	2.39828191	4.11E-09
0.6115	2.397900304	4.00E-09
0.6123	2.397518698	3.88E-09
0.6131	2.397137093	3.76E-09
0.6139	2.396755822	3.65E-09
0.6147	2.396382276	3.55E-09
0.6155	2.39600873	3.45E-09
0.6163	2.395635184	3.36E-09
0.617	2.395261637	3.26E-09
0.6178	2.394892748	3.17E-09
0.6186	2.394527062	3.08E-09
0.6194	2.394161375	2.99E-09
0.6202	2.393795688	2.91E-09
0.621	2.393430906	2.82E-09
0.6218	2.393072885	2.74E-09
0.6226	2.392714864	2.66E-09
0.6234	2.392356843	2.59E-09
0.6242	2.391998822	2.51E-09
0.625	2.391645418	2.44E-09
0.6258	2.391294875	2.37E-09
0.6266	2.390944332	2.31E-09
0.6274	2.390593789	2.24E-09
0.6282	2.39024391	2.18E-09
0.629	2.389900662	2.12E-09
0.6298	2.389557414	2.06E-09
0.6306	2.389214166	2.01E-09
0.6314	2.388870918	1.95E-09
0.6322	2.388531501	1.90E-09
0.6329	2.388195371	1.85E-09
0.6337	2.387859241	1.80E-09
0.6345	2.38752311	1.75E-09
0.6353	2.38718698	1.70E-09
0.6361	2.386857513	1.65E-09
0.6369	2.386528329	1.60E-09
0.6377	2.386199144	1.56E-09
0.6385	2.385869959	1.51E-09
0.6393	2.385543174	1.47E-09
0.6401	2.385220767	1.43E-09
0.6409	2.38489836	1.39E-09
0.6417	2.384575953	1.35E-09
0.6425	2.384253546	1.32E-09
0.6433	2.383935917	1.28E-09
0.6441	2.383620125	1.25E-09
0.6449	2.383304334	1.21E-09
0.6457	2.382988542	1.18E-09
0.6465	2.382673161	1.14E-09
0.6473	2.382363826	1.11E-09
0.6481	2.382054492	1.08E-09
0.6488	2.381745158	1.05E-09
0.6496	2.381435824	1.02E-09
0.6504	2.381128872	9.96E-10
0.6512	2.380825841	9.70E-10
0.652	2.38052281	9.44E-10
0.6528	2.38021978	9.17E-10
0.6536	2.379916749	8.91E-10
0.6544	2.379617813	8.67E-10
0.6552	2.379320936	8.44E-10
0.656	2.37902406	8.21E-10
0.6568	2.378727184	7.98E-10
0.6576	2.378430307	7.75E-10
0.6584	2.378138992	7.54E-10
0.6592	2.377848124	7.34E-10
0.66	2.377557256	7.14E-10
0.6608	2.377266388	6.93E-10
0.6616	2.376976449	6.74E-10
0.6624	2.376691449	6.56E-10
0.6632	2.376406449	6.38E-10
0.664	2.376121449	6.20E-10
0.6647	2.375836449	6.02E-10
0.6655	2.375553532	5.85E-10
0.6663	2.375274262	5.69E-10
0.6671	2.374994992	5.53E-10
0.6679	2.374715723	5.37E-10
0.6687	2.374436453	5.21E-10
0.6695	2.374160212	5.07E-10
0.6703	2.373886538	4.93E-10
0.6711	2.373612864	4.79E-10
0.6719	2.373339191	4.65E-10
0.6727	2.373065517	4.51E-10
0.6735	2.372795621	4.39E-10
0.6743	2.372527413	4.26E-10
0.6751	2.372259206	4.14E-10
0.6759	2.371990998	4.02E-10
0.6767	2.371722791	3.90E-10
0.6775	2.371458923	3.79E-10
0.6783	2.371196055	3.68E-10
0.6791	2.370933187	3.57E-10
0.6799	2.370670319	3.46E-10
0.6806	2.370407452	3.35E-10
0.6814	2.370149312	3.25E-10
0.6822	2.369891661	3.15E-10
0.683	2.369634009	3.05E-10
0.6838	2.369376358	2.96E-10
0.6846	2.369118706	2.86E-10
0.6854	2.368866007	2.78E-10
0.6862	2.368613452	2.69E-10
0.687	2.368360896	2.61E-10
0.6878	2.368108341	2.52E-10
0.6886	2.367855828	2.44E-10
0.6894	2.367608253	2.36E-10
0.6902	2.367360677	2.29E-10
0.691	2.367113102	2.21E-10
0.6918	2.366865526	2.13E-10
0.6926	2.366618032	2.06E-10
0.6934	2.366375322	1.99E-10
0.6942	2.366132612	1.92E-10
0.695	2.365889902	1.86E-10
0.6958	2.365647192	1.79E-10
0.6965	2.365404483	1.72E-10
0.6973	2.365166509	1.66E-10
0.6981	2.364928554	1.60E-10
0.6989	2.364690599	1.54E-10
0.6997	2.364452644	1.48E-10
0.7005	2.364214689	1.43E-10
0.7013	2.363981132	1.37E-10
0.7021	2.363747824	1.32E-10
0.7029	2.363514517	1.27E-10
0.7037	2.363281209	1.21E-10
0.7045	2.363047901	1.16E-10
0.7053	2.362818533	1.11E-10
0.7061	2.362589768	1.06E-10
0.7069	2.362361002	1.02E-10
0.7077	2.362132236	9.68E-11
0.7085	2.36190347	9.20E-11
0.7093	2.361678076	8.77E-11
0.7101	2.361453749	8.34E-11
0.7109	2.361229423	7.91E-11
0.7117	2.361005097	7.49E-11
0.7124	2.36078077	7.06E-11
0.7132	2.360559142	6.67E-11
0.714	2.360339155	6.29E-11
0.7148	2.360119169	5.91E-11
0.7156	2.359899182	5.52E-11
0.7164	2.359679195	5.14E-11
0.7172	2.359461137	4.79E-11
0.718	2.359245392	4.45E-11
0.7188	2.359029648	4.11E-11
0.7196	2.358813904	3.76E-11
0.7204	2.358598159	3.42E-11
0.7212	2.358383482	3.10E-11
0.722	2.358171886	2.79E-11
0.7228	2.357960289	2.49E-11
0.7236	2.357748693	2.18E-11
0.7244	2.357537096	1.87E-11
0.7252	2.357325622	1.57E-11
0.726	2.357118081	1.30E-11
0.7268	2.356910539	1.02E-11
0.7276	2.356702998	7.48E-12
0.7283	2.356495457	4.74E-12
0.7291	2.356287915	1.99E-12
0.7299	2.356083439	1.46E-12
0.7307	2.355879862	1.13E-12
0.7315	2.355676286	7.93E-13
0.7323	2.35547271	4.58E-13
0.7331	2.355269133	1.24E-13
0.7339	2.355067439	0
0.7347	2.35486774	0
0.7355	2.354668041	0
0.7363	2.354468342	0
0.7371	2.354268643	0
0.7379	2.354069578	0
0.7387	2.353873671	0
0.7395	2.353677763	0
0.7403	2.353481856	0
0.7411	2.353285948	0
0.7419	2.353090041	0
0.7427	2.352897168	0
0.7435	2.352704968	0
0.7443	2.352512769	0
0.745	2.352320569	0
0.7458	2.352128369	0
0.7466	2.351937761	0
0.7474	2.351749188	0
0.7482	2.351560615	0
0.749	2.351372042	0
0.7498	2.35118347	0
0.7506	2.350994996	0
0.7514	2.35080997	0
0.7522	2.350624944	0
0.753	2.350439918	0
0.7538	2.350254892	0
0.7546	2.350069866	0
0.7554	2.349886872	0
0.7562	2.349705316	0
0.757	2.34952376	0
0.7578	2.349342204	0
0.7586	2.349160648	0
0.7594	2.348979473	0
0.7602	2.34880131	0
0.7609	2.348623148	0
0.7617	2.348444985	0
0.7625	2.348266823	0
0.7633	2.34808866	0
0.7641	2.347912514	0
0.7649	2.347737671	0
0.7657	2.347562828	0
0.7665	2.347387986	0
0.7673	2.347213143	0
0.7681	2.34703853	0
0.7689	2.346866935	0
0.7697	2.34669534	0
0.7705	2.346523746	0
0.7713	2.346352151	0
0.7721	2.346180557	0
0.7729	2.346010556	0
0.7737	2.34584214	0
0.7745	2.345673723	0
0.7753	2.345505306	0
0.7761	2.345336889	0
0.7768	2.345168472	0
0.7776	2.345002855	0
0.7784	2.344837547	0
0.7792	2.344672239	0
0.78	2.344506931	0
0.7808	2.344341623	0
0.7816	2.344177129	0
0.7824	2.344014863	0
0.7832	2.343852597	0
0.784	2.343690331	0
0.7848	2.343528065	0
0.7856	2.343365799	0
0.7864	2.343205323	0
0.7872	2.343046034	0
0.788	2.342886744	0
0.7888	2.342727455	0
0.7896	2.342568165	0
0.7904	2.342408876	0
0.7912	2.342252217	0
0.792	2.34209584	0
0.7927	2.341939463	0
0.7935	2.341783086	0
0.7943	2.341626709	0
0.7951	2.341470822	0
0.7959	2.341317295	0
0.7967	2.341163768	0
0.7975	2.341010242	0
0.7983	2.340856715	0
0.7991	2.340703188	0
0.7999	2.340550797	0
0.8007	2.34040006	0
0.8015	2.340249323	0
0.8023	2.340098585	0
0.8031	2.339947848	0
0.8039	2.339797111	0
0.8047	2.339648037	0
0.8055	2.33950003	0
0.8063	2.339352022	0
0.8071	2.339204015	0
0.8079	2.339056007	0
0.8086	2.338908	0
0.8094	2.338762071	0
0.8102	2.338616735	0
0.811	2.338471399	0
0.8118	2.338326064	0
0.8126	2.338180728	0
0.8134	2.338035392	0
0.8142	2.337892444	0
0.815	2.337749723	0
0.8158	2.337607003	0
0.8166	2.337464282	0
0.8174	2.337321561	0
0.8182	2.337178877	0
0.819	2.337038716	0
0.8198	2.336898554	0
0.8206	2.336758393	0
0.8214	2.336618232	0
0.8222	2.33647807	0
0.823	2.336338113	0
0.8238	2.336200457	0
0.8245	2.336062801	0
0.8253	2.335925145	0
0.8261	2.335787489	0
0.8269	2.335649833	0
0.8277	2.335512458	0
0.8285	2.335377254	0
0.8293	2.33524205	0
0.8301	2.335106846	0
0.8309	2.334971642	0
0.8317	2.334836438	0
0.8325	2.334701506	0
0.8333	2.334568703	0
0.8341	2.334435899	0
0.8349	2.334303096	0
0.8357	2.334170293	0
0.8365	2.33403749	0
0.8373	2.333904867	0
0.8381	2.333774414	0
0.8389	2.333643961	0
0.8397	2.333513508	0
0.8404	2.333383054	0
0.8412	2.333252601	0
0.842	2.333122162	0
0.8428	2.332994009	0
0.8436	2.332865856	0
0.8444	2.332737704	0
0.8452	2.332609551	0
0.846	2.332481398	0
0.8468	2.332353245	0
0.8476	2.332227119	0
0.8484	2.332101219	0
0.8492	2.331975318	0
0.85	2.331849418	0
0.8508	2.331723518	0
0.8516	2.331597617	0
0.8524	2.33147339	0
0.8532	2.331349694	0
0.854	2.331225999	0
0.8548	2.331102304	0
0.8556	2.330978608	0
0.8563	2.330854913	0
0.8571	2.330732474	0
0.8579	2.330610937	0
0.8587	2.330489401	0
0.8595	2.330367864	0
0.8603	2.330246328	0
0.8611	2.330124791	0
0.8619	2.330004035	0
0.8627	2.329884613	0
0.8635	2.32976519	0
0.8643	2.329645767	0
0.8651	2.329526344	0
0.8659	2.329406922	0
0.8667	2.32928775	0
0.8675	2.329170397	0
0.8683	2.329053044	0
0.8691	2.328935691	0
0.8699	2.328818338	0
0.8707	2.328700985	0
0.8715	2.328583632	0
0.8722	2.328467974	0
0.873	2.328352647	0
0.8738	2.328237321	0
0.8746	2.328121994	0
0.8754	2.328006667	0
0.8762	2.32789134	0
0.877	2.327777038	0
0.8778	2.327663695	0
0.8786	2.327550353	0
0.8794	2.32743701	0
0.8802	2.327323668	0
0.881	2.327210326	0
0.8818	2.327097292	0
0.8826	2.326985893	0
0.8834	2.326874493	0
0.8842	2.326763094	0
0.885	2.326651695	0
0.8858	2.326540295	0
0.8866	2.326428896	0
0.8874	2.326318952	0
0.8882	2.326209456	0
0.8889	2.326099959	0
0.8897	2.325990462	0
0.8905	2.325880966	0
0.8913	2.325771469	0
0.8921	2.325662595	0
0.8929	2.325554962	0
0.8937	2.325447328	0
0.8945	2.325339694	0
0.8953	2.32523206	0
0.8961	2.325124427	0
0.8969	2.325016793	0
0.8977	2.32491074	0
0.8985	2.324804931	0
0.8993	2.324699122	0
0.9001	2.324593313	0
0.9009	2.324487504	0
0.9017	2.324381695	0
0.9025	2.324276531	0
0.9033	2.324172509	0
0.9041	2.324068487	0
0.9048	2.323964465	0
0.9056	2.323860443	0
0.9064	2.32375642	0
0.9072	2.323652398	0
0.908	2.323549808	0
0.9088	2.323447536	0
0.9096	2.323345263	0
0.9104	2.323242991	0
0.9112	2.323140718	0
0.912	2.323038446	0
0.9128	2.322936581	0
0.9136	2.322836022	0
0.9144	2.322735463	0
0.9152	2.322634904	0
0.916	2.322534345	0
0.9168	2.322433786	0
0.9176	2.322333227	0
0.9184	2.322233708	0
0.9192	2.322134827	0
0.92	2.322035946	0
0.9207	2.321937066	0
0.9215	2.321838185	0
0.9223	2.321739304	0
0.9231	2.321640423	0
0.9239	2.321543125	0
0.9247	2.321445888	0
0.9255	2.321348651	0
0.9263	2.321251414	0
0.9271	2.321154177	0
0.9279	2.32105694	0
0.9287	2.320960133	0
0.9295	2.320864506	0
0.9303	2.320768879	0
0.9311	2.320673251	0
0.9319	2.320577624	0
0.9327	2.320481997	0
0.9335	2.320386369	0
0.9343	2.320291584	0
0.9351	2.320197533	0
0.9359	2.320103482	0
0.9366	2.320009431	0
0.9374	2.31991538	0
0.9382	2.31982133	0
0.939	2.319727279	0
0.9398	2.319634403	0
0.9406	2.319541897	0
0.9414	2.31944939	0
0.9422	2.319356883	0
0.943	2.319264377	0
0.9438	2.31917187	0
0.9446	2.319079363	0
0.9454	2.318988292	0
0.9462	2.318897298	0
0.947	2.318806304	0
0.9478	2.31871531	0
0.9486	2.318624315	0
0.9494	2.318533321	0
0.9502	2.318442472	0
0.951	2.318352959	0
0.9518	2.318263446	0
0.9525	2.318173933	0
0.9533	2.31808442	0
0.9541	2.317994907	0
0.9549	2.317905394	0
0.9557	2.317816182	0
0.9565	2.317728119	0
0.9573	2.317640057	0
0.9581	2.317551995	0
0.9589	2.317463933	0
0.9597	2.317375871	0
0.9605	2.317287809	0
0.9613	2.31720014	0
0.9621	2.317113499	0
0.9629	2.317026858	0
0.9637	2.316940216	0
0.9645	2.316853575	0
0.9653	2.316766934	0
0.9661	2.316680292	0
0.9669	2.316594078	0
0.9677	2.316508828	0
0.9684	2.316423579	0
0.9692	2.31633833	0
0.97	2.31625308	0
0.9708	2.316167831	0
0.9716	2.316082582	0
0.9724	2.315997736	0
0.9732	2.31591385	0
0.974	2.315829963	0
0.9748	2.315746077	0
0.9756	2.315662191	0
0.9764	2.315578305	0
0.9772	2.315494419	0
0.978	2.315410859	0
0.9788	2.315328309	0
0.9796	2.315245758	0
0.9804	2.315163207	0
0.9812	2.315080656	0
0.982	2.314998105	0
0.9828	2.314915555	0
0.9836	2.314833204	0
0.9843	2.314751961	0
0.9851	2.314670718	0
0.9859	2.314589475	0
0.9867	2.314508232	0
0.9875	2.314426989	0
0.9883	2.314345746	0
0.9891	2.314264528	0
0.9899	2.314184566	0
0.9907	2.314104604	0
0.9915	2.314024643	0
0.9923	2.313944681	0
0.9931	2.313864719	0
0.9939	2.313784757	0
0.9947	2.313704795	0
